Wavelength	Transmittance	hex_color	Manufacturer	Name	Filter Number
400	8e-05	#838383	Omega	420ALP Longpass	W3726
401	0.00012				
402	0.00017				
403	0.00025				
404	0.00041				
405	0.00066				
406	0.00096				
407	0.00156				
408	0.0023699999999999997				
409	0.00378				
410	0.00588				
411	0.009000000000000001				
412	0.01414				
413	0.02169				
414	0.03292				
415	0.05037				
416	0.07674				
417	0.1139				
418	0.16570000000000001				
419	0.23373999999999998				
420	0.32014000000000004				
421	0.41920999999999997				
422	0.5184300000000001				
423	0.6158				
424	0.69616				
425	0.75442				
426	0.7959				
427	0.82395				
428	0.84274				
429	0.8518399999999999				
430	0.8562000000000001				
431	0.85843				
432	0.8636400000000001				
433	0.8647400000000001				
434	0.86568				
435	0.86773				
436	0.86932				
437	0.87005				
438	0.8709699999999999				
439	0.87362				
440	0.8748600000000001				
441	0.87566				
442	0.87739				
443	0.87848				
444	0.88043				
445	0.8808799999999999				
446	0.88273				
447	0.88424				
448	0.8860800000000001				
449	0.88618				
450	0.88875				
451	0.88521				
452	0.88546				
453	0.88925				
454	0.8884000000000001				
455	0.88818				
456	0.8877200000000001				
457	0.88678				
458	0.8855200000000001				
459	0.88684				
460	0.88776				
461	0.8878900000000001				
462	0.8865900000000001				
463	0.8870600000000001				
464	0.88803				
465	0.8880500000000001				
466	0.8885500000000001				
467	0.89091				
468	0.8914				
469	0.89409				
470	0.8943300000000001				
471	0.89587				
472	0.8965900000000001				
473	0.8963				
474	0.8961				
475	0.89783				
476	0.89742				
477	0.89652				
478	0.89783				
479	0.8970699999999999				
480	0.89507				
481	0.89519				
482	0.895				
483	0.89515				
484	0.89007				
485	0.8906399999999999				
486	0.8898				
487	0.8913599999999999				
488	0.8897799999999999				
489	0.8868300000000001				
490	0.8878199999999999				
491	0.88843				
492	0.88866				
493	0.88958				
494	0.8898699999999999				
495	0.89154				
496	0.88923				
497	0.89436				
498	0.89544				
499	0.89301				
500	0.89667				
501	0.89852				
502	0.89916				
503	0.89925				
504	0.9001600000000001				
505	0.90155				
506	0.90264				
507	0.90236				
508	0.90306				
509	0.9028100000000001				
510	0.9030400000000001				
511	0.90291				
512	0.90098				
513	0.89943				
514	0.9020999999999999				
515	0.9000900000000001				
516	0.89866				
517	0.9004300000000001				
518	0.89802				
519	0.89774				
520	0.897				
521	0.89618				
522	0.89569				
523	0.8964				
524	0.8954000000000001				
525	0.89669				
526	0.89526				
527	0.8951399999999999				
528	0.89577				
529	0.89704				
530	0.89699				
531	0.8972100000000001				
532	0.89744				
533	0.8976999999999999				
534	0.90034				
535	0.90024				
536	0.8996200000000001				
537	0.9004800000000001				
538	0.9042				
539	0.903				
540	0.90319				
541	0.90422				
542	0.90551				
543	0.90445				
544	0.90473				
545	0.9028400000000001				
546	0.90554				
547	0.903				
548	0.90456				
549	0.9031600000000001				
550	0.90096				
551	0.9024599999999999				
552	0.9020199999999999				
553	0.90279				
554	0.9001399999999999				
555	0.89833				
556	0.89908				
557	0.89768				
558	0.89705				
559	0.89569				
560	0.8945000000000001				
561	0.89483				
562	0.89411				
563	0.89376				
564	0.8918699999999999				
565	0.89495				
566	0.89349				
567	0.89265				
568	0.89429				
569	0.89235				
570	0.89255				
571	0.89604				
572	0.89476				
573	0.89422				
574	0.8951600000000001				
575	0.8950499999999999				
576	0.89582				
577	0.89554				
578	0.8980800000000001				
579	0.8981				
580	0.89806				
581	0.89994				
582	0.90008				
583	0.90006				
584	0.90283				
585	0.90215				
586	0.9023699999999999				
587	0.90306				
588	0.90339				
589	0.90282				
590	0.9036				
591	0.9041800000000001				
592	0.9025799999999999				
593	0.9041				
594	0.902				
595	0.903				
596	0.90346				
597	0.9026099999999999				
598	0.90223				
599	0.9013800000000001				
600	0.9005500000000001				
601	0.90082				
602	0.89959				
603	0.8987099999999999				
604	0.8986700000000001				
605	0.89878				
606	0.897				
607	0.89779				
608	0.8962699999999999				
609	0.8962				
610	0.89443				
611	0.8943099999999999				
612	0.89482				
613	0.89313				
614	0.89279				
615	0.89337				
616	0.8931				
617	0.89239				
618	0.89238				
619	0.8928				
620	0.89333				
621	0.89176				
622	0.89301				
623	0.8926999999999999				
624	0.89349				
625	0.89429				
626	0.89459				
627	0.89384				
628	0.89557				
629	0.89622				
630	0.895				
631	0.8976500000000001				
632	0.89764				
633	0.89689				
634	0.89739				
635	0.8995799999999999				
636	0.8995399999999999				
637	0.8987999999999999				
638	0.89974				
639	0.90167				
640	0.90116				
641	0.90113				
642	0.90154				
643	0.90274				
644	0.90137				
645	0.90173				
646	0.90309				
647	0.90179				
648	0.9019799999999999				
649	0.90228				
650	0.90208				
651	0.89976				
652	0.9009				
653	0.9005				
654	0.8998999999999999				
655	0.89927				
656	0.8987099999999999				
657	0.89905				
658	0.8979600000000001				
659	0.8950199999999999				
660	0.8966				
661	0.89425				
662	0.89469				
663	0.89445				
664	0.89278				
665	0.8919499999999999				
666	0.8909900000000001				
667	0.89142				
668	0.89031				
669	0.8879699999999999				
670	0.88846				
671	0.88691				
672	0.88685				
673	0.88524				
674	0.88484				
675	0.88315				
676	0.88457				
677	0.88381				
678	0.88327				
679	0.88274				
680	0.88264				
681	0.8834000000000001				
682	0.8819199999999999				
683	0.88203				
684	0.88318				
685	0.88158				
686	0.88107				
687	0.88201				
688	0.88249				
689	0.88221				
690	0.884				
691	0.8831699999999999				
692	0.8836700000000001				
693	0.8828900000000001				
694	0.88485				
695	0.88458				
696	0.8856499999999999				
697	0.8851300000000001				
698	0.8854000000000001				
699	0.8861199999999999				
700	0.8874599999999999				
701	0.888				
702	0.88748				
703	0.88714				
704	0.89057				
705	0.88976				
706	0.89101				
707	0.89122				
708	0.8917100000000001				
709	0.8908400000000001				
710	0.89238				
711	0.8940300000000001				
712	0.8920999999999999				
713	0.8935				
714	0.89583				
715	0.89546				
716	0.89499				
717	0.89434				
718	0.89644				
719	0.89678				
720	0.89605				
721	0.89598				
722	0.8953700000000001				
723	0.89752				
724	0.89545				
725	0.89429				
726	0.89615				
727	0.89498				
728	0.89603				
729	0.89413				
730	0.89322				
731	0.8952800000000001				
732	0.8934300000000001				
733	0.89166				
734	0.89354				
735	0.8885500000000001				
736	0.8896200000000001				
737	0.88928				
738	0.8898				
739	0.8894				
740	0.88708				
741	0.8891800000000001				
742	0.88843				
743	0.88445				
744	0.8839100000000001				
745	0.88209				
746	0.8809699999999999				
747	0.8813				
748	0.88166				
749	0.8808499999999999				
750	0.87696				
751	0.87711				
752	0.87729				
753	0.87643				
754	0.87593				
755	0.87666				
756	0.8734000000000001				
757	0.87164				
758	0.8716200000000001				
759	0.87589				
760	0.87083				
761	0.87161				
762	0.87224				
763	0.87151				
764	0.8682599999999999				
765	0.86861				
766	0.8679000000000001				
767	0.8706499999999999				
768	0.8666200000000001				
769	0.86666				
770	0.87031				
771	0.8676600000000001				
772	0.86964				
773	0.86786				
774	0.8675799999999999				
775	0.86905				
776	0.87055				
777	0.86724				
778	0.8687699999999999				
779	0.87099				
780	0.8701399999999999				
781	0.87127				
782	0.86874				
783	0.8688800000000001				
784	0.86844				
785	0.86788				
786	0.87273				
787	0.87519				
788	0.8721099999999999				
789	0.87579				
790	0.87527				
791	0.86914				
792	0.87654				
793	0.88024				
794	0.87397				
795	0.87622				
796	0.88066				
797	0.87519				
798	0.87161				
799	0.87895				
800	0.8810800000000001				
801	0.87937				
802	0.8769100000000001				
803	0.87729				
804	0.87792				
805	0.8844				
806	0.88201				
807	0.8860800000000001				
808	0.88589				
809	0.8870600000000001				
810	0.88783				
811	0.88668				
812	0.88713				
813	0.88027				
814	0.8889199999999999				
815	0.88815				
816	0.88645				
817	0.88912				
818	0.8843300000000001				
819	0.89173				
820	0.8891800000000001				
821	0.88779				
822	0.88649				
823	0.88961				
824	0.89254				
825	0.8895000000000001				
826	0.89366				
827	0.8879600000000001				
828	0.89188				
829	0.8850100000000001				
830	0.89091				
831	0.88658				
832	0.8906000000000001				
833	0.88702				
834	0.8901699999999999				
835	0.88434				
836	0.8866299999999999				
837	0.88627				
838	0.89432				
839	0.8913899999999999				
840	0.8863500000000001				
841	0.8866299999999999				
842	0.8895000000000001				
843	0.88633				
844	0.8861				
845	0.8870699999999999				
846	0.88583				
847	0.8832599999999999				
848	0.8817499999999999				
849	0.8884799999999999				
850	0.88351				
851	0.88176				
852	0.88835				
853	0.88				
854	0.8806				
855	0.8867				
856	0.88685				
857	0.88483				
858	0.89262				
859	0.8788800000000001				
860	0.88945				
861	0.88755				
862	0.8811599999999999				
863	0.87518				
864	0.8779300000000001				
865	0.88483				
866	0.8834000000000001				
867	0.8718300000000001				
868	0.88536				
869	0.87741				
870	0.86283				
871	0.86818				
872	0.8785200000000001				
873	0.88103				
874	0.85636				
875	0.86616				
876	0.86709				
877	0.88818				
878	0.86324				
879	0.87074				
880	0.86991				
881	0.87046				
882	0.87024				
883	0.86905				
884	0.8706				
885	0.87062				
886	0.8697400000000001				
887	0.86978				
888	0.86981				
889	0.86981				
890	0.8698999999999999				
891	0.86979				
892	0.8698999999999999				
893	0.8700199999999999				
894	0.86957				
895	0.87068				
896	0.8695499999999999				
897	0.87078				
898	0.8683299999999999				
899	0.86477				
900	0.8629399999999999				
901	0.86288				
902	0.8636400000000001				
903	0.86344				
904	0.86393				
905	0.86399				
906	0.8638899999999999				
907	0.86452				
908	0.8648699999999999				
909	0.86465				
910	0.8649800000000001				
911	0.86548				
912	0.8659300000000001				
913	0.86619				
914	0.86638				
915	0.8660599999999999				
916	0.86722				
917	0.86749				
918	0.86744				
919	0.86698				
920	0.8679300000000001				
921	0.86861				
922	0.86919				
923	0.8692700000000001				
924	0.8689				
925	0.8696299999999999				
926	0.86989				
927	0.8704999999999999				
928	0.87086				
929	0.87017				
930	0.87158				
931	0.872				
932	0.87118				
933	0.8718600000000001				
934	0.87205				
935	0.8726900000000001				
936	0.87311				
937	0.87298				
938	0.87436				
939	0.87396				
940	0.8740000000000001				
941	0.87373				
942	0.8741500000000001				
943	0.87521				
944	0.87491				
945	0.87425				
946	0.8751099999999999				
947	0.87554				
948	0.87546				
949	0.8753799999999999				
950	0.87605				
951	0.87606				
952	0.87598				
953	0.87588				
954	0.8764				
955	0.87673				
956	0.87637				
957	0.87629				
958	0.8767499999999999				
959	0.8764				
960	0.8764799999999999				
961	0.8759999999999999				
962	0.87613				
963	0.87634				
964	0.87664				
965	0.87586				
966	0.87587				
967	0.87622				
968	0.8760800000000001				
969	0.87599				
970	0.87541				
971	0.87588				
972	0.87546				
973	0.8756900000000001				
974	0.87613				
975	0.8752599999999999				
976	0.8755				
977	0.8756900000000001				
978	0.87516				
979	0.8747799999999999				
980	0.87482				
981	0.87492				
982	0.87495				
983	0.87374				
984	0.87453				
985	0.8740000000000001				
986	0.87362				
987	0.87359				
988	0.8732500000000001				
989	0.873				
990	0.8737				
991	0.87383				
992	0.8723099999999999				
993	0.8719499999999999				
994	0.87261				
995	0.87185				
996	0.87237				
997	0.87143				
998	0.8714				
999	0.8712000000000001				
1000	0.87173				
