Wavelength	Transmittance	hex_color	Manufacturer	Name	Filter Number
300	0.17189	#838383	Omega	355-680nm BC Dichroic	W3063
301	0.17638				
302	0.18835999999999997				
303	0.20372				
304	0.22424				
305	0.25526				
306	0.29992				
307	0.35991				
308	0.42668				
309	0.47787999999999997				
310	0.50948				
311	0.49527				
312	0.44675				
313	0.36144				
314	0.3013				
315	0.22449000000000002				
316	0.16262000000000001				
317	0.12361000000000001				
318	0.09692				
319	0.08134999999999999				
320	0.06529				
321	0.05279				
322	0.04376				
323	0.035699999999999996				
324	0.033010000000000005				
325	0.02735				
326	0.02349				
327	0.02075				
328	0.0196				
329	0.01823				
330	0.016220000000000002				
331	0.01601				
332	0.014110000000000001				
333	0.01244				
334	0.00999				
335	0.011430000000000001				
336	0.009260000000000001				
337	0.01054				
338	0.00812				
339	0.01089				
340	0.009439999999999999				
341	0.00793				
342	0.00641				
343	0.0076500000000000005				
344	0.00904				
345	0.009729999999999999				
346	0.00839				
347	0.008289999999999999				
348	0.00786				
349	0.00823				
350	0.0076				
351	0.00644				
352	0.00876				
353	0.00749				
354	0.010360000000000001				
355	0.008409999999999999				
356	0.00892				
357	0.009389999999999999				
358	0.00937				
359	0.01052				
360	0.008579999999999999				
361	0.01099				
362	0.01129				
363	0.011359999999999999				
364	0.01107				
365	0.01172				
366	0.01164				
367	0.01426				
368	0.013349999999999999				
369	0.014650000000000002				
370	0.01734				
371	0.016659999999999998				
372	0.017689999999999997				
373	0.0192				
374	0.01977				
375	0.02197				
376	0.02315				
377	0.02408				
378	0.02754				
379	0.02883				
380	0.030430000000000002				
381	0.03202				
382	0.035230000000000004				
383	0.03964				
384	0.04128999999999999				
385	0.04484				
386	0.04974				
387	0.05351				
388	0.057539999999999994				
389	0.06402999999999999				
390	0.06896				
391	0.07461999999999999				
392	0.08385999999999999				
393	0.09089				
394	0.10009				
395	0.10968				
396	0.11895				
397	0.13174				
398	0.13893				
399	0.15553				
400	0.16876000000000002				
401	0.18327000000000002				
402	0.19838999999999998				
403	0.21317				
404	0.23087				
405	0.24876				
406	0.26508				
407	0.28006				
408	0.29528				
409	0.32104				
410	0.33667				
411	0.35442999999999997				
412	0.36756				
413	0.38656999999999997				
414	0.40402				
415	0.42362				
416	0.43828				
417	0.45786				
418	0.47152				
419	0.49088				
420	0.50892				
421	0.52872				
422	0.53996				
423	0.55682				
424	0.57339				
425	0.5929800000000001				
426	0.61042				
427	0.63008				
428	0.64247				
429	0.6630400000000001				
430	0.67758				
431	0.69953				
432	0.7206600000000001				
433	0.73504				
434	0.7505				
435	0.76678				
436	0.7873600000000001				
437	0.8026399999999999				
438	0.8184				
439	0.82966				
440	0.84504				
441	0.85611				
442	0.8721599999999999				
443	0.88568				
444	0.89618				
445	0.90593				
446	0.9152800000000001				
447	0.92369				
448	0.9306699999999999				
449	0.93686				
450	0.94377				
451	0.94908				
452	0.95146				
453	0.95451				
454	0.9570799999999999				
455	0.9573999999999999				
456	0.95865				
457	0.95908				
458	0.9568800000000001				
459	0.95703				
460	0.9559099999999999				
461	0.95446				
462	0.95107				
463	0.95324				
464	0.94789				
465	0.94467				
466	0.9442				
467	0.94049				
468	0.93907				
469	0.9357800000000001				
470	0.9312999999999999				
471	0.92979				
472	0.92822				
473	0.9255500000000001				
474	0.92306				
475	0.9189499999999999				
476	0.9212				
477	0.9155599999999999				
478	0.91553				
479	0.91148				
480	0.9091800000000001				
481	0.9075				
482	0.90857				
483	0.9041				
484	0.90334				
485	0.90224				
486	0.89858				
487	0.8966299999999999				
488	0.8930500000000001				
489	0.8947499999999999				
490	0.89508				
491	0.8929				
492	0.88971				
493	0.89057				
494	0.89034				
495	0.8875799999999999				
496	0.8835500000000001				
497	0.88563				
498	0.8841800000000001				
499	0.88235				
500	0.88054				
501	0.88094				
502	0.87988				
503	0.8776900000000001				
504	0.87665				
505	0.87535				
506	0.87589				
507	0.87372				
508	0.87385				
509	0.8730800000000001				
510	0.8733				
511	0.8729600000000001				
512	0.8719899999999999				
513	0.8712000000000001				
514	0.87125				
515	0.86907				
516	0.86727				
517	0.86734				
518	0.86604				
519	0.8691200000000001				
520	0.86883				
521	0.8700199999999999				
522	0.8700600000000001				
523	0.87138				
524	0.86938				
525	0.8716700000000001				
526	0.8709399999999999				
527	0.87215				
528	0.86956				
529	0.87251				
530	0.87605				
531	0.8733299999999999				
532	0.8763200000000001				
533	0.8811599999999999				
534	0.8753799999999999				
535	0.88079				
536	0.8815000000000001				
537	0.8864700000000001				
538	0.88511				
539	0.88714				
540	0.88735				
541	0.8912300000000001				
542	0.89265				
543	0.8947499999999999				
544	0.8992600000000001				
545	0.90137				
546	0.8993099999999999				
547	0.90491				
548	0.90834				
549	0.90827				
550	0.90642				
551	0.91524				
552	0.9158499999999999				
553	0.9173600000000001				
554	0.91982				
555	0.9220999999999999				
556	0.9234600000000001				
557	0.92938				
558	0.9232299999999999				
559	0.92943				
560	0.9315000000000001				
561	0.93762				
562	0.9334				
563	0.93584				
564	0.94009				
565	0.94077				
566	0.94085				
567	0.9432299999999999				
568	0.9465699999999999				
569	0.94328				
570	0.9470099999999999				
571	0.9493				
572	0.94659				
573	0.94781				
574	0.94754				
575	0.9480200000000001				
576	0.9487000000000001				
577	0.9510599999999999				
578	0.94939				
579	0.94581				
580	0.9492				
581	0.94765				
582	0.94879				
583	0.94538				
584	0.94663				
585	0.94255				
586	0.94401				
587	0.94308				
588	0.94024				
589	0.9351				
590	0.93635				
591	0.93884				
592	0.9387399999999999				
593	0.9365300000000001				
594	0.9295699999999999				
595	0.93099				
596	0.93006				
597	0.9287399999999999				
598	0.9255				
599	0.92027				
600	0.92366				
601	0.9205200000000001				
602	0.91685				
603	0.91524				
604	0.91291				
605	0.9121299999999999				
606	0.91118				
607	0.90286				
608	0.90374				
609	0.9037099999999999				
610	0.8980400000000001				
611	0.89961				
612	0.89689				
613	0.8910800000000001				
614	0.88702				
615	0.88851				
616	0.8856100000000001				
617	0.88558				
618	0.8857599999999999				
619	0.88287				
620	0.8752599999999999				
621	0.87812				
622	0.8774299999999999				
623	0.8774299999999999				
624	0.87425				
625	0.87161				
626	0.86978				
627	0.86942				
628	0.86618				
629	0.86988				
630	0.8655700000000001				
631	0.87271				
632	0.86244				
633	0.8648399999999999				
634	0.86012				
635	0.86064				
636	0.86175				
637	0.86444				
638	0.85834				
639	0.8598				
640	0.86017				
641	0.8632500000000001				
642	0.85893				
643	0.85869				
644	0.85218				
645	0.8608499999999999				
646	0.85736				
647	0.86092				
648	0.85866				
649	0.85708				
650	0.8579600000000001				
651	0.86162				
652	0.85899				
653	0.8636400000000001				
654	0.8625700000000001				
655	0.8609300000000001				
656	0.8612000000000001				
657	0.8633700000000001				
658	0.86238				
659	0.86669				
660	0.8669				
661	0.86361				
662	0.8662000000000001				
663	0.86751				
664	0.865				
665	0.8725799999999999				
666	0.8708				
667	0.86856				
668	0.87205				
669	0.8745499999999999				
670	0.8742700000000001				
671	0.8769899999999999				
672	0.88197				
673	0.87862				
674	0.88114				
675	0.88361				
676	0.88271				
677	0.88412				
678	0.88715				
679	0.8817400000000001				
680	0.88495				
681	0.89133				
682	0.88728				
683	0.89402				
684	0.89051				
685	0.89008				
686	0.89495				
687	0.90024				
688	0.8939400000000001				
689	0.89858				
690	0.90253				
691	0.90282				
692	0.90264				
693	0.90201				
694	0.90319				
695	0.904				
696	0.9066200000000001				
697	0.9071899999999999				
698	0.90818				
699	0.9087900000000001				
700	0.9097				
