Wavelength	Transmittance	hex_color	Manufacturer	Name	Filter Number
350	0.0	#838383	Omega	435ALP Longpass	XF3088/25
351	1e-05				
352	0.0				
353	3e-05				
354	1e-05				
355	1e-05				
356	2e-05				
357	1e-05				
358	2e-05				
359	1e-05				
360	2e-05				
361	0.0				
362	0.0				
363	2e-05				
364	1e-05				
365	1e-05				
366	1e-05				
367	0.0				
368	1e-05				
369	0.0				
370	1e-05				
371	2e-05				
372	0.0				
373	0.0				
374	0.0				
375	2e-05				
376	2e-05				
377	0.0				
378	0.0				
379	0.0				
380	0.0				
381	0.0				
382	0.0				
383	0.0				
384	0.0				
385	2e-05				
386	0.0				
387	0.0				
388	1e-05				
389	0.0				
390	0.0				
391	1e-05				
392	0.0				
393	0.0				
394	0.0				
395	0.0				
396	0.0				
397	2e-05				
398	1e-05				
399	1e-05				
400	0.0				
401	1e-05				
402	0.0				
403	0.0				
404	2e-05				
405	3e-05				
406	0.0				
407	0.0				
408	0.0				
409	0.0				
410	3e-05				
411	2e-05				
412	0.0				
413	0.0				
414	2e-05				
415	0.0				
416	3e-05				
417	0.0				
418	0.0				
419	2e-05				
420	0.0				
421	3e-05				
422	2e-05				
423	0.0				
424	0.0				
425	0.0				
426	2e-05				
427	0.0				
428	2e-05				
429	3e-05				
430	1e-05				
431	3e-05				
432	0.0				
433	2e-05				
434	3e-05				
435	7.000000000000001e-05				
436	0.0002				
437	0.00052				
438	0.0016				
439	0.005390000000000001				
440	0.01969				
441	0.0723				
442	0.23002				
443	0.50037				
444	0.71152				
445	0.8084699999999999				
446	0.84308				
447	0.8461				
448	0.8377899999999999				
449	0.83545				
450	0.84237				
451	0.8542400000000001				
452	0.8642				
453	0.86851				
454	0.86469				
455	0.85474				
456	0.84408				
457	0.83672				
458	0.83501				
459	0.8393200000000001				
460	0.8494700000000001				
461	0.8621599999999999				
462	0.87541				
463	0.88691				
464	0.89452				
465	0.89827				
466	0.89782				
467	0.895				
468	0.89131				
469	0.888				
470	0.8863				
471	0.88631				
472	0.88751				
473	0.89083				
474	0.89412				
475	0.8982800000000001				
476	0.90134				
477	0.90366				
478	0.90512				
479	0.90551				
480	0.90508				
481	0.90494				
482	0.90448				
483	0.90362				
484	0.9031				
485	0.90259				
486	0.9018999999999999				
487	0.9020600000000001				
488	0.9019499999999999				
489	0.9015900000000001				
490	0.9011100000000001				
491	0.9016200000000001				
492	0.90148				
493	0.90241				
494	0.90298				
495	0.9045399999999999				
496	0.90656				
497	0.90807				
498	0.9102800000000001				
499	0.91147				
500	0.9116500000000001				
501	0.91096				
502	0.90915				
503	0.90574				
504	0.90164				
505	0.89629				
506	0.88958				
507	0.88414				
508	0.87739				
509	0.87226				
510	0.86737				
511	0.8645499999999999				
512	0.86284				
513	0.86244				
514	0.86468				
515	0.86802				
516	0.87316				
517	0.8789199999999999				
518	0.8855				
519	0.8924500000000001				
520	0.89893				
521	0.9052899999999999				
522	0.9111100000000001				
523	0.91521				
524	0.9167799999999999				
525	0.9169799999999999				
526	0.91577				
527	0.91306				
528	0.90901				
529	0.90484				
530	0.89986				
531	0.89408				
532	0.88973				
533	0.88657				
534	0.88248				
535	0.8803				
536	0.88004				
537	0.8809				
538	0.88154				
539	0.88414				
540	0.88866				
541	0.89283				
542	0.89562				
543	0.90045				
544	0.90833				
545	0.9117400000000001				
546	0.91155				
547	0.9135599999999999				
548	0.9226399999999999				
549	0.92474				
550	0.92479				
551	0.92097				
552	0.9194599999999999				
553	0.91692				
554	0.91447				
555	0.9121299999999999				
556	0.9100400000000001				
557	0.90738				
558	0.90496				
559	0.90349				
560	0.90259				
561	0.90152				
562	0.90074				
563	0.9019799999999999				
564	0.90274				
565	0.90315				
566	0.90474				
567	0.90697				
568	0.9089499999999999				
569	0.9100499999999999				
570	0.9117799999999999				
571	0.91392				
572	0.91509				
573	0.91649				
574	0.9172899999999999				
575	0.91752				
576	0.91777				
577	0.91714				
578	0.9168000000000001				
579	0.91554				
580	0.9147799999999999				
581	0.91334				
582	0.9117000000000001				
583	0.9101300000000001				
584	0.9079600000000001				
585	0.9067799999999999				
586	0.90488				
587	0.90402				
588	0.9031199999999999				
589	0.90244				
590	0.90178				
591	0.90179				
592	0.9018200000000001				
593	0.90205				
594	0.9028				
595	0.90334				
596	0.90441				
597	0.90472				
598	0.9056799999999999				
599	0.90661				
600	0.90789				
601	0.90807				
602	0.90916				
603	0.90995				
604	0.91059				
605	0.91098				
606	0.91121				
607	0.9115099999999999				
608	0.91134				
609	0.91105				
610	0.91083				
611	0.91039				
612	0.9087000000000001				
613	0.90766				
614	0.9086				
615	0.90604				
616	0.9047				
617	0.9032399999999999				
618	0.90168				
619	0.9001699999999999				
620	0.8985				
621	0.89688				
622	0.89562				
623	0.89361				
624	0.8921800000000001				
625	0.89094				
626	0.88955				
627	0.8883				
628	0.8869799999999999				
629	0.8862000000000001				
630	0.88536				
631	0.88457				
632	0.8837600000000001				
633	0.88339				
634	0.88266				
635	0.88226				
636	0.8820600000000001				
637	0.8817499999999999				
638	0.8817499999999999				
639	0.88177				
640	0.8822199999999999				
641	0.88235				
642	0.8824299999999999				
643	0.88252				
644	0.88306				
645	0.88306				
646	0.88336				
647	0.8835500000000001				
648	0.88389				
649	0.88421				
650	0.88416				
651	0.88479				
652	0.88447				
653	0.88436				
654	0.88476				
655	0.88444				
656	0.88388				
657	0.8834399999999999				
658	0.8829300000000001				
659	0.88259				
660	0.88138				
661	0.8806499999999999				
662	0.8798600000000001				
663	0.87854				
664	0.87725				
665	0.8764799999999999				
666	0.87485				
667	0.87395				
668	0.8724200000000001				
669	0.87134				
670	0.8700600000000001				
671	0.86908				
672	0.86748				
673	0.8662399999999999				
674	0.86496				
675	0.8636				
676	0.86336				
677	0.86177				
678	0.8608100000000001				
679	0.85962				
680	0.85911				
681	0.85832				
682	0.85772				
683	0.85706				
684	0.8562099999999999				
685	0.85587				
686	0.85539				
687	0.8548600000000001				
688	0.8545				
689	0.8543600000000001				
690	0.85419				
691	0.85407				
692	0.85394				
693	0.85378				
694	0.8537600000000001				
695	0.8534900000000001				
696	0.85319				
697	0.8528				
698	0.85241				
699	0.85234				
700	0.8521				
701	0.85153				
702	0.85127				
703	0.85065				
704	0.85021				
705	0.84941				
706	0.84846				
707	0.84812				
708	0.84726				
709	0.84652				
710	0.84529				
711	0.8445699999999999				
712	0.84319				
713	0.84265				
714	0.8411799999999999				
715	0.8398				
716	0.83863				
717	0.83762				
718	0.83616				
719	0.83518				
720	0.83351				
721	0.8323699999999999				
722	0.83101				
723	0.8299				
724	0.82831				
725	0.8272799999999999				
726	0.8257599999999999				
727	0.8248399999999999				
728	0.8235800000000001				
729	0.8223999999999999				
730	0.82119				
731	0.82018				
732	0.8191200000000001				
733	0.81779				
734	0.81714				
735	0.81616				
736	0.8153199999999999				
737	0.8145399999999999				
738	0.8134399999999999				
739	0.81294				
740	0.8126000000000001				
741	0.8118000000000001				
742	0.81134				
743	0.81086				
744	0.81025				
745	0.80915				
746	0.80861				
747	0.80854				
748	0.80792				
749	0.80757				
750	0.80682				
751	0.80633				
752	0.8057500000000001				
753	0.80525				
754	0.8044100000000001				
755	0.804				
756	0.8033199999999999				
757	0.8024				
758	0.8019799999999999				
759	0.80121				
760	0.8004600000000001				
761	0.79971				
762	0.7989				
763	0.7976000000000001				
764	0.79703				
765	0.7959				
766	0.79491				
767	0.79376				
768	0.7927				
769	0.79104				
770	0.7898499999999999				
771	0.78885				
772	0.7878799999999999				
773	0.78644				
774	0.78474				
775	0.78334				
776	0.7823				
777	0.78108				
778	0.77928				
779	0.77806				
780	0.777				
781	0.77506				
782	0.7741				
783	0.77247				
784	0.77093				
785	0.76957				
786	0.7682800000000001				
787	0.76678				
788	0.7652899999999999				
789	0.76422				
790	0.7629699999999999				
791	0.76149				
792	0.76009				
793	0.75952				
794	0.75804				
795	0.75689				
796	0.7556				
797	0.7546299999999999				
798	0.75386				
799	0.7525799999999999				
800	0.7518300000000001				
801	0.75066				
802	0.7497400000000001				
803	0.7493000000000001				
804	0.7487699999999999				
805	0.7478400000000001				
806	0.7470699999999999				
807	0.7463				
808	0.7463200000000001				
809	0.74563				
810	0.74524				
811	0.74496				
812	0.74453				
813	0.7445				
814	0.74408				
815	0.74399				
816	0.74426				
817	0.7441599999999999				
818	0.74409				
819	0.7436				
820	0.74356				
821	0.74357				
822	0.74331				
823	0.74348				
824	0.74334				
825	0.74322				
826	0.74291				
827	0.74247				
828	0.7424599999999999				
829	0.74177				
830	0.74138				
831	0.74131				
832	0.74122				
833	0.74113				
834	0.74005				
835	0.7400199999999999				
836	0.7391200000000001				
837	0.7384000000000001				
838	0.73763				
839	0.73737				
840	0.73637				
841	0.7353400000000001				
842	0.73506				
843	0.73413				
844	0.73372				
845	0.73248				
846	0.73188				
847	0.7308199999999999				
848	0.7297899999999999				
849	0.7280500000000001				
850	0.72737				
