Wavelength	Transmittance	hex_color	Manufacturer	Name	Filter Number
351	0.17095	#838383	Omega	580DRLP Dichroic	XF2086/25.7*36
352	0.18928				
353	0.20479				
354	0.21907				
355	0.2323				
356	0.24413				
357	0.25056				
358	0.25032				
359	0.25367999999999996				
360	0.26411				
361	0.29427				
362	0.33142000000000005				
363	0.3506				
364	0.34127				
365	0.30692				
366	0.25405				
367	0.22308				
368	0.23063				
369	0.2569				
370	0.26483				
371	0.2667				
372	0.28894				
373	0.26664				
374	0.18780999999999998				
375	0.10334				
376	0.0546				
377	0.03041				
378	0.01922				
379	0.01349				
380	0.00976				
381	0.00733				
382	0.00599				
383	0.00586				
384	0.00584				
385	0.00525				
386	0.005560000000000001				
387	0.00657				
388	0.006520000000000001				
389	0.00715				
390	0.0091				
391	0.00982				
392	0.01246				
393	0.01566				
394	0.01981				
395	0.025009999999999998				
396	0.03342				
397	0.04378				
398	0.061020000000000005				
399	0.08467000000000001				
400	0.12359999999999999				
401	0.16689				
402	0.23907				
403	0.31436				
404	0.43603000000000003				
405	0.5503399999999999				
406	0.665				
407	0.80117				
408	0.86374				
409	0.8564700000000001				
410	0.82162				
411	0.8005				
412	0.80035				
413	0.82574				
414	0.86763				
415	0.92086				
416	0.94699				
417	0.9492400000000001				
418	0.92327				
419	0.86694				
420	0.81101				
421	0.7632599999999999				
422	0.7431399999999999				
423	0.73354				
424	0.74098				
425	0.76946				
426	0.80729				
427	0.85764				
428	0.9009699999999999				
429	0.94598				
430	0.96024				
431	0.9457800000000001				
432	0.91338				
433	0.8594499999999999				
434	0.80259				
435	0.76047				
436	0.72649				
437	0.7092700000000001				
438	0.7027				
439	0.7082999999999999				
440	0.7280800000000001				
441	0.7590399999999999				
442	0.8037399999999999				
443	0.84446				
444	0.8931999999999999				
445	0.92597				
446	0.9448399999999999				
447	0.93647				
448	0.91265				
449	0.8867				
450	0.8509				
451	0.82202				
452	0.80011				
453	0.7923699999999999				
454	0.7947299999999999				
455	0.80928				
456	0.8322400000000001				
457	0.86555				
458	0.8995000000000001				
459	0.92467				
460	0.92884				
461	0.9124				
462	0.8805299999999999				
463	0.82053				
464	0.75224				
465	0.70781				
466	0.66059				
467	0.62239				
468	0.58618				
469	0.56016				
470	0.54736				
471	0.54417				
472	0.5522699999999999				
473	0.5772200000000001				
474	0.61687				
475	0.68651				
476	0.75008				
477	0.8184600000000001				
478	0.8548300000000001				
479	0.8535699999999999				
480	0.8089700000000001				
481	0.75387				
482	0.68805				
483	0.6293				
484	0.56821				
485	0.51932				
486	0.45832				
487	0.40621				
488	0.37807999999999997				
489	0.34534				
490	0.32713000000000003				
491	0.31751				
492	0.32711				
493	0.35275				
494	0.42207				
495	0.48467				
496	0.52825				
497	0.51483				
498	0.46622				
499	0.40846				
500	0.38883				
501	0.40257				
502	0.43957999999999997				
503	0.46187				
504	0.44512				
505	0.40342				
506	0.31932				
507	0.23693				
508	0.17367000000000002				
509	0.12115000000000001				
510	0.0913				
511	0.06736				
512	0.05152999999999999				
513	0.04156				
514	0.0319				
515	0.02541				
516	0.021320000000000002				
517	0.017310000000000002				
518	0.01559				
519	0.013269999999999999				
520	0.01129				
521	0.0105				
522	0.00918				
523	0.00821				
524	0.00731				
525	0.00649				
526	0.00649				
527	0.00598				
528	0.0057399999999999994				
529	0.00592				
530	0.00511				
531	0.00477				
532	0.00459				
533	0.00451				
534	0.004050000000000001				
535	0.004030000000000001				
536	0.00395				
537	0.0042699999999999995				
538	0.0034999999999999996				
539	0.00373				
540	0.0038900000000000002				
541	0.00385				
542	0.00409				
543	0.00434				
544	0.0042				
545	0.0042699999999999995				
546	0.00441				
547	0.00577				
548	0.00527				
549	0.00528				
550	0.0074399999999999996				
551	0.006520000000000001				
552	0.00722				
553	0.00805				
554	0.00888				
555	0.010660000000000001				
556	0.01084				
557	0.01264				
558	0.01374				
559	0.01505				
560	0.01665				
561	0.019299999999999998				
562	0.02076				
563	0.023969999999999998				
564	0.02859				
565	0.03202				
566	0.03707				
567	0.04206000000000001				
568	0.04977				
569	0.05824				
570	0.06863999999999999				
571	0.08164999999999999				
572	0.09330999999999999				
573	0.10944000000000001				
574	0.12997				
575	0.15401				
576	0.17893				
577	0.20582				
578	0.23897				
579	0.27268000000000003				
580	0.31472				
581	0.36131				
582	0.40378000000000003				
583	0.43424999999999997				
584	0.47607999999999995				
585	0.51078				
586	0.54615				
587	0.57967				
588	0.61034				
589	0.64923				
590	0.68364				
591	0.72446				
592	0.7702500000000001				
593	0.8177599999999999				
594	0.85532				
595	0.8910800000000001				
596	0.92				
597	0.9427800000000001				
598	0.95533				
599	0.96428				
600	0.97038				
601	0.97336				
602	0.97509				
603	0.97725				
604	0.97771				
605	0.97917				
606	0.98151				
607	0.98256				
608	0.9842700000000001				
609	0.9838				
610	0.98725				
611	0.9887699999999999				
612	0.9895				
613	0.98983				
614	0.9880500000000001				
615	0.98697				
616	0.98726				
617	0.98497				
618	0.98378				
619	0.98359				
620	0.98322				
621	0.9829600000000001				
622	0.9797899999999999				
623	0.97938				
624	0.9792700000000001				
625	0.97748				
626	0.97687				
627	0.97932				
628	0.9776699999999999				
629	0.98016				
630	0.98068				
631	0.98002				
632	0.98324				
633	0.98343				
634	0.98429				
635	0.9851399999999999				
636	0.98331				
637	0.9863				
638	0.98629				
639	0.98741				
640	0.99012				
641	0.9893899999999999				
642	0.98516				
643	0.98556				
644	0.98505				
645	0.9859				
646	0.9841599999999999				
647	0.98578				
648	0.98464				
649	0.98321				
650	0.98272				
651	0.9840800000000001				
652	0.98531				
653	0.98265				
654	0.9829600000000001				
655	0.98545				
656	0.9829399999999999				
657	0.98462				
658	0.9829399999999999				
659	0.98489				
660	0.98458				
661	0.9829600000000001				
662	0.9869199999999999				
663	0.98419				
664	0.98491				
665	0.98488				
666	0.98688				
667	0.98658				
668	0.98543				
669	0.9863				
670	0.98592				
671	0.98503				
672	0.9839199999999999				
673	0.98492				
674	0.98492				
675	0.9851000000000001				
676	0.98506				
677	0.9847199999999999				
678	0.98418				
679	0.98509				
680	0.9834499999999999				
681	0.9821				
682	0.98502				
683	0.98166				
684	0.9840399999999999				
685	0.98407				
686	0.9851800000000001				
687	0.9843500000000001				
688	0.98535				
689	0.98423				
690	0.9836400000000001				
691	0.98504				
692	0.98265				
693	0.98434				
694	0.98512				
695	0.98465				
696	0.98618				
697	0.98556				
698	0.98443				
699	0.98182				
700	0.98394				
701	0.98226				
702	0.98225				
703	0.9801300000000001				
704	0.97759				
705	0.97744				
706	0.9743600000000001				
707	0.9729399999999999				
708	0.96918				
709	0.96809				
710	0.9633700000000001				
711	0.95938				
712	0.95694				
713	0.9530299999999999				
714	0.94893				
715	0.94489				
716	0.94052				
717	0.9389700000000001				
718	0.9345600000000001				
719	0.93018				
720	0.9281900000000001				
721	0.92357				
722	0.9214				
723	0.9173399999999999				
724	0.9165099999999999				
725	0.9149200000000001				
726	0.90964				
727	0.90941				
728	0.91077				
729	0.90683				
730	0.90554				
731	0.90533				
732	0.9066299999999999				
733	0.90523				
734	0.90472				
735	0.91065				
736	0.9119799999999999				
737	0.91035				
738	0.9122199999999999				
739	0.91825				
740	0.9234399999999999				
741	0.92025				
742	0.9228000000000001				
743	0.92712				
744	0.92989				
745	0.9350400000000001				
746	0.9376099999999999				
747	0.9459399999999999				
748	0.9441299999999999				
749	0.9511499999999999				
750	0.95309				
751	0.95756				
752	0.95982				
753	0.9653100000000001				
754	0.966				
755	0.9647				
756	0.9707399999999999				
757	0.97004				
758	0.97107				
759	0.96917				
760	0.9692400000000001				
761	0.9665300000000001				
762	0.96143				
763	0.96125				
764	0.96048				
765	0.95367				
766	0.95308				
767	0.95112				
768	0.94223				
769	0.93597				
770	0.93242				
771	0.92611				
772	0.9196500000000001				
773	0.91389				
774	0.90537				
775	0.90196				
776	0.89364				
777	0.88936				
778	0.87937				
779	0.87482				
780	0.86717				
781	0.8577400000000001				
782	0.85956				
783	0.84726				
784	0.8454999999999999				
785	0.8453				
786	0.83961				
787	0.83576				
788	0.8310599999999999				
789	0.82991				
790	0.83015				
791	0.82219				
792	0.82296				
793	0.82611				
794	0.8224800000000001				
795	0.8223199999999999				
796	0.8249299999999999				
797	0.82759				
798	0.82509				
799	0.82865				
800	0.8298099999999999				
