Wavelength	Transmittance	hex_color	Manufacturer	Name	Filter Number
350	0.0	#838383	Omega	480AF30 Bandpass	W3824
351	0.0				
352	0.0				
353	0.0				
354	0.0				
355	0.0				
356	0.0				
357	0.0				
358	0.0				
359	0.0				
360	0.0				
361	0.0				
362	0.0				
363	0.0				
364	0.0				
365	0.0				
366	0.0				
367	0.0				
368	0.0				
369	0.0				
370	0.0				
371	0.0				
372	0.0				
373	0.0				
374	0.0				
375	0.0				
376	0.0				
377	0.0				
378	0.0				
379	0.0				
380	0.0				
381	0.0				
382	0.0				
383	0.0				
384	0.0				
385	0.0				
386	0.0				
387	0.0				
388	0.0				
389	0.0				
390	0.0				
391	0.0				
392	0.0				
393	0.0				
394	0.0				
395	0.0				
396	0.0				
397	0.0				
398	0.0				
399	0.0				
400	0.0				
401	0.0				
402	0.0				
403	0.0				
404	0.0				
405	0.0				
406	0.0				
407	0.0				
408	0.0				
409	0.0				
410	0.0				
411	0.0				
412	0.0				
413	0.0				
414	0.0				
415	0.0				
416	0.0				
417	0.0				
418	0.0				
419	0.0				
420	0.0				
421	0.0				
422	0.0				
423	0.0				
424	0.0				
425	0.0				
426	0.0				
427	0.0				
428	0.0				
429	0.0				
430	0.0				
431	0.0				
432	0.0				
433	0.0				
434	0.0				
435	0.0				
436	0.0				
437	0.0				
438	0.0				
439	0.0				
440	0.0				
441	0.0				
442	0.0				
443	0.0				
444	0.0				
445	0.0				
446	0.0				
447	0.0				
448	0.0				
449	0.0				
450	0.0				
451	0.0				
452	0.0				
453	1e-05				
454	1e-05				
455	3e-05				
456	7.000000000000001e-05				
457	0.00013				
458	0.00023				
459	0.00046				
460	0.00097				
461	0.00207				
462	0.0039900000000000005				
463	0.00716				
464	0.01283				
465	0.02573				
466	0.05939				
467	0.14475				
468	0.28808				
469	0.42316000000000004				
470	0.49439				
471	0.52972				
472	0.56386				
473	0.59766				
474	0.62961				
475	0.66625				
476	0.70817				
477	0.74789				
478	0.77051				
479	0.7697700000000001				
480	0.7496200000000001				
481	0.72502				
482	0.70542				
483	0.69636				
484	0.69219				
485	0.6892400000000001				
486	0.6871299999999999				
487	0.6866800000000001				
488	0.69184				
489	0.7045				
490	0.72506				
491	0.75036				
492	0.7726999999999999				
493	0.7878499999999999				
494	0.7843800000000001				
495	0.73641				
496	0.62515				
497	0.45602				
498	0.28379				
499	0.15263				
500	0.07541				
501	0.03543				
502	0.0166				
503	0.00772				
504	0.00374				
505	0.00188				
506	0.00099				
507	0.00053				
508	0.0003				
509	0.00017				
510	8.999999999999999e-05				
511	4e-05				
512	2e-05				
513	1e-05				
514	0.0				
515	0.0				
516	0.0				
517	0.0				
518	0.0				
519	0.0				
520	0.0				
521	0.0				
522	0.0				
523	0.0				
524	0.0				
525	0.0				
526	0.0				
527	0.0				
528	0.0				
529	0.0				
530	0.0				
531	0.0				
532	0.0				
533	0.0				
534	0.0				
535	0.0				
536	0.0				
537	0.0				
538	0.0				
539	0.0				
540	0.0				
541	0.0				
542	0.0				
543	0.0				
544	0.0				
545	0.0				
546	0.0				
547	0.0				
548	0.0				
549	0.0				
550	0.0				
551	0.0				
552	0.0				
553	0.0				
554	0.0				
555	0.0				
556	0.0				
557	0.0				
558	0.0				
559	0.0				
560	0.0				
561	0.0				
562	0.0				
563	0.0				
564	0.0				
565	0.0				
566	0.0				
567	0.0				
568	0.0				
569	0.0				
570	0.0				
571	0.0				
572	0.0				
573	0.0				
574	0.0				
575	0.0				
576	0.0				
577	0.0				
578	0.0				
579	0.0				
580	0.0				
581	0.0				
582	0.0				
583	0.0				
584	0.0				
585	0.0				
586	0.0				
587	0.0				
588	0.0				
589	0.0				
590	0.0				
591	0.0				
592	0.0				
593	0.0				
594	0.0				
595	0.0				
596	0.0				
597	0.0				
598	0.0				
599	0.0				
600	0.0				
