Wavelength	Transmittance	hex_color	Manufacturer	Name	Filter Number
300	1e-05	#838383	Omega	PL-360LP Photolithography Mask Aligner Filter 165x165mm Longpass	W2927
301	0.0				
302	0.0				
303	1e-05				
304	0.0				
305	0.0				
306	0.0				
307	0.0				
308	0.0				
309	0.0				
310	0.0				
311	0.0				
312	0.0				
313	0.0				
314	0.0				
315	0.0				
316	0.0				
317	0.0				
318	0.0				
319	0.0				
320	0.0				
321	0.0				
322	0.0				
323	0.0				
324	0.0				
325	0.0				
326	0.0				
327	0.0				
328	0.0				
329	0.0				
330	0.0				
331	0.0				
332	0.0				
333	0.0				
334	1e-05				
335	5e-05				
336	0.00010999999999999999				
337	0.00028000000000000003				
338	0.00067				
339	0.0014099999999999998				
340	0.0027800000000000004				
341	0.00526				
342	0.00935				
343	0.015880000000000002				
344	0.02524				
345	0.03873				
346	0.05567999999999999				
347	0.07901				
348	0.10592				
349	0.13949999999999999				
350	0.17403				
351	0.21422				
352	0.25603000000000004				
353	0.29932				
354	0.34232				
355	0.38628				
356	0.42945				
357	0.47043999999999997				
358	0.50751				
359	0.54521				
360	0.5798599999999999				
361	0.6109100000000001				
362	0.64031				
363	0.66688				
364	0.69104				
365	0.7119599999999999				
366	0.7298699999999999				
367	0.7487				
368	0.7647400000000001				
369	0.77872				
370	0.7911400000000001				
371	0.8028400000000001				
372	0.81274				
373	0.8215399999999999				
374	0.82903				
375	0.83587				
376	0.84134				
377	0.84721				
378	0.85134				
379	0.85698				
380	0.86047				
381	0.86369				
382	0.86687				
383	0.87032				
384	0.87188				
385	0.87507				
386	0.8784099999999999				
387	0.88023				
388	0.8816700000000001				
389	0.88312				
390	0.88359				
391	0.88591				
392	0.88625				
393	0.8885				
394	0.88976				
395	0.89075				
396	0.8916				
397	0.8917400000000001				
398	0.89275				
399	0.8934099999999999				
400	0.89361				
401	0.8941				
402	0.89539				
403	0.8950400000000001				
404	0.8962699999999999				
405	0.897				
406	0.8967100000000001				
407	0.89661				
408	0.8976900000000001				
409	0.89738				
410	0.8978700000000001				
411	0.89813				
412	0.89884				
413	0.8988299999999999				
414	0.89878				
415	0.8988200000000001				
416	0.8989400000000001				
417	0.89973				
418	0.89955				
419	0.90031				
420	0.90036				
421	0.89943				
422	0.90031				
423	0.9007				
424	0.89973				
425	0.9005				
426	0.90069				
427	0.90107				
428	0.90145				
429	0.9011199999999999				
430	0.90158				
431	0.9003				
432	0.9013800000000001				
433	0.9015099999999999				
434	0.9011499999999999				
435	0.90107				
436	0.90146				
437	0.90187				
438	0.90164				
439	0.90144				
440	0.90161				
441	0.9013500000000001				
442	0.90184				
443	0.9018				
444	0.9022				
445	0.90238				
446	0.9018200000000001				
447	0.90255				
448	0.9024				
449	0.90215				
450	0.9024800000000001				
451	0.90288				
452	0.90295				
453	0.90242				
454	0.9027				
455	0.90321				
456	0.90277				
457	0.90264				
458	0.9029200000000001				
459	0.90288				
460	0.90381				
461	0.90243				
462	0.9030400000000001				
463	0.90267				
464	0.9032399999999999				
465	0.9029699999999999				
466	0.90254				
467	0.90337				
468	0.90301				
469	0.90346				
470	0.90354				
471	0.9033				
472	0.90375				
473	0.90352				
474	0.90338				
475	0.9034				
476	0.90333				
477	0.90365				
478	0.90427				
479	0.90375				
480	0.90423				
481	0.9040300000000001				
482	0.9040300000000001				
483	0.90374				
484	0.90412				
485	0.90387				
486	0.9031399999999999				
487	0.90375				
488	0.9043399999999999				
489	0.90401				
490	0.90402				
491	0.90396				
492	0.90401				
493	0.90437				
494	0.90449				
495	0.9038200000000001				
496	0.90431				
497	0.90416				
498	0.90431				
499	0.90457				
500	0.9043399999999999				
501	0.9046500000000001				
502	0.90467				
503	0.90429				
504	0.90452				
505	0.90506				
506	0.90448				
507	0.90444				
508	0.9042600000000001				
509	0.90512				
510	0.90487				
511	0.90422				
512	0.90508				
513	0.90473				
514	0.90495				
515	0.9051				
516	0.90457				
517	0.9047700000000001				
518	0.9047799999999999				
519	0.9046299999999999				
520	0.9052800000000001				
521	0.90503				
522	0.9046599999999999				
523	0.90482				
524	0.9047499999999999				
525	0.90488				
526	0.90457				
527	0.90522				
528	0.90534				
529	0.9054099999999999				
530	0.90494				
531	0.90506				
532	0.9051300000000001				
533	0.9046599999999999				
534	0.90526				
535	0.9053100000000001				
536	0.9055				
537	0.90484				
538	0.9052800000000001				
539	0.90535				
540	0.90496				
541	0.9055599999999999				
542	0.90518				
543	0.9052500000000001				
544	0.9051				
545	0.90565				
546	0.90559				
547	0.9055599999999999				
548	0.90533				
549	0.90617				
550	0.90546				
551	0.9054000000000001				
552	0.90519				
553	0.9056799999999999				
554	0.90539				
555	0.9054800000000001				
556	0.90539				
557	0.90554				
558	0.90582				
559	0.9058499999999999				
560	0.9058799999999999				
561	0.90561				
562	0.90584				
563	0.90581				
564	0.90575				
565	0.90617				
566	0.9057200000000001				
567	0.90595				
568	0.90605				
569	0.90586				
570	0.90586				
571	0.9059999999999999				
572	0.9062				
573	0.90598				
574	0.90558				
575	0.9056799999999999				
576	0.90532				
577	0.90545				
578	0.90596				
579	0.90617				
580	0.90549				
581	0.90565				
582	0.90562				
583	0.9057				
584	0.9057999999999999				
585	0.90559				
586	0.90582				
587	0.9057999999999999				
588	0.90582				
589	0.90578				
590	0.90575				
591	0.90557				
592	0.9057200000000001				
593	0.9056799999999999				
594	0.90608				
595	0.9063				
596	0.90618				
597	0.90606				
598	0.90553				
599	0.9056399999999999				
600	0.9057599999999999				
601	0.9059900000000001				
602	0.90606				
603	0.90583				
604	0.90575				
605	0.90567				
606	0.90574				
607	0.9058499999999999				
608	0.90606				
609	0.90553				
610	0.90595				
611	0.90622				
612	0.90596				
613	0.9059999999999999				
614	0.9057999999999999				
615	0.9054800000000001				
616	0.9059699999999999				
617	0.90562				
618	0.90589				
619	0.90577				
620	0.9057299999999999				
621	0.90566				
622	0.90565				
623	0.9058499999999999				
624	0.90559				
625	0.90577				
626	0.90575				
627	0.90566				
628	0.90557				
629	0.90575				
630	0.90566				
631	0.90607				
632	0.90578				
633	0.90598				
634	0.90579				
635	0.90582				
636	0.90607				
637	0.9059999999999999				
638	0.90616				
639	0.90646				
640	0.9059699999999999				
641	0.9059				
642	0.9059900000000001				
643	0.90634				
644	0.9063				
645	0.90621				
646	0.9066				
647	0.9066200000000001				
648	0.90648				
649	0.90641				
650	0.9066200000000001				
651	0.9064700000000001				
652	0.9065099999999999				
653	0.9067000000000001				
654	0.9066299999999999				
655	0.9068999999999999				
656	0.9068600000000001				
657	0.90649				
658	0.9067799999999999				
659	0.9067000000000001				
660	0.90681				
661	0.90697				
662	0.90717				
663	0.90696				
664	0.90692				
665	0.9063599999999999				
666	0.9068200000000001				
667	0.9073699999999999				
668	0.9070999999999999				
669	0.90683				
670	0.9072				
671	0.90712				
672	0.9074599999999999				
673	0.90705				
674	0.90658				
675	0.90697				
676	0.90744				
677	0.90744				
678	0.9073399999999999				
679	0.90753				
680	0.90736				
681	0.90759				
682	0.9074500000000001				
683	0.9073699999999999				
684	0.90715				
685	0.9076900000000001				
686	0.90753				
687	0.90783				
688	0.90727				
689	0.9074800000000001				
690	0.9078400000000001				
691	0.9078700000000001				
692	0.90764				
693	0.9076000000000001				
694	0.9072199999999999				
695	0.90708				
696	0.90752				
697	0.90793				
698	0.9074800000000001				
699	0.9079900000000001				
700	0.90726				
701	0.9077500000000001				
702	0.90764				
703	0.90728				
704	0.9076000000000001				
705	0.90791				
706	0.9078400000000001				
707	0.90778				
708	0.90739				
709	0.90763				
710	0.90738				
711	0.9078700000000001				
712	0.9081199999999999				
713	0.90732				
714	0.90732				
715	0.9087000000000001				
716	0.90806				
717	0.9078700000000001				
718	0.9079600000000001				
719	0.9078499999999999				
720	0.90807				
721	0.9081699999999999				
722	0.9081999999999999				
723	0.9079999999999999				
724	0.9084099999999999				
725	0.90837				
726	0.9081199999999999				
727	0.90793				
728	0.9079200000000001				
729	0.90777				
730	0.90762				
731	0.90838				
732	0.9084300000000001				
733	0.90842				
734	0.90825				
735	0.90803				
736	0.90781				
737	0.9086700000000001				
738	0.90724				
739	0.9078700000000001				
740	0.9082399999999999				
741	0.90835				
742	0.90744				
743	0.90861				
744	0.90862				
745	0.90899				
746	0.90864				
747	0.9085				
748	0.9082899999999999				
749	0.9078499999999999				
750	0.9079699999999999				
751	0.9067799999999999				
752	0.90794				
753	0.90837				
754	0.90866				
755	0.9084300000000001				
756	0.9087000000000001				
757	0.90913				
758	0.90865				
759	0.90776				
760	0.9080800000000001				
761	0.90846				
762	0.90751				
763	0.9083199999999999				
764	0.90857				
765	0.90885				
766	0.9078				
767	0.9081100000000001				
768	0.90842				
769	0.9074599999999999				
770	0.90788				
771	0.90839				
772	0.90741				
773	0.90806				
774	0.90876				
775	0.9088299999999999				
776	0.90849				
777	0.9080800000000001				
778	0.90862				
779	0.90774				
780	0.9092600000000001				
781	0.90849				
782	0.90814				
783	0.9076099999999999				
784	0.90881				
785	0.90823				
786	0.9079900000000001				
787	0.9090699999999999				
788	0.90783				
789	0.9074				
790	0.9082899999999999				
791	0.9092100000000001				
792	0.90834				
793	0.90726				
794	0.90689				
795	0.90801				
796	0.9084699999999999				
797	0.90689				
798	0.9090900000000001				
799	0.90957				
800	0.9085899999999999				
801	0.9081100000000001				
802	0.90858				
803	0.90876				
804	0.90786				
805	0.91065				
806	0.90848				
807	0.90833				
808	0.90874				
809	0.91012				
810	0.90874				
811	0.90979				
812	0.90813				
813	0.9066500000000001				
814	0.90759				
815	0.9082399999999999				
816	0.90889				
817	0.9101				
818	0.90742				
819	0.90892				
820	0.90794				
821	0.9072199999999999				
822	0.9089499999999999				
823	0.90822				
824	0.90825				
825	0.90916				
826	0.90911				
827	0.90764				
828	0.90736				
829	0.9089700000000001				
830	0.9091800000000001				
831	0.90916				
832	0.90853				
833	0.90728				
834	0.9080800000000001				
835	0.90696				
836	0.90866				
837	0.90852				
838	0.90947				
839	0.90888				
840	0.90957				
841	0.9081999999999999				
842	0.9072199999999999				
843	0.90766				
844	0.90782				
845	0.9079900000000001				
846	0.9078700000000001				
847	0.90886				
848	0.90788				
849	0.9091800000000001				
850	0.91008				
851	0.9093600000000001				
852	0.9102				
853	0.90755				
854	0.90654				
855	0.90704				
856	0.90912				
857	0.9077				
858	0.90637				
859	0.9093800000000001				
860	0.9090600000000001				
861	0.90837				
862	0.9106000000000001				
863	0.90664				
864	0.90714				
865	0.91				
866	0.9068999999999999				
867	0.9096				
868	0.9111199999999999				
869	0.90553				
870	0.90544				
871	0.90713				
872	0.9079999999999999				
873	0.9084				
874	0.90483				
875	0.91116				
876	0.90101				
877	0.9137099999999999				
878	0.90562				
879	0.90742				
880	0.90803				
881	0.9070999999999999				
882	0.9138				
883	0.91188				
884	0.9097799999999999				
885	0.9081600000000001				
886	0.91254				
887	0.91148				
888	0.90436				
889	0.90795				
890	0.9075700000000001				
891	0.90776				
892	0.9078499999999999				
893	0.9078				
894	0.90751				
895	0.90752				
896	0.9079699999999999				
897	0.90791				
898	0.9077200000000001				
899	0.9079699999999999				
900	0.90794				
