Wavelength	Transmittance	hex_color	Manufacturer	Name	Filter Number
300	0.28048	#838383	Omega	400DCLP Dichroic	XF2001/22
301	0.25723				
302	0.23998999999999998				
303	0.23299				
304	0.23189				
305	0.23484000000000002				
306	0.23418				
307	0.22241				
308	0.21145				
309	0.20829999999999999				
310	0.21747				
311	0.23464				
312	0.24362999999999999				
313	0.23265999999999998				
314	0.19596				
315	0.15222				
316	0.11347				
317	0.07533000000000001				
318	0.0556				
319	0.03854				
320	0.02846				
321	0.022099999999999998				
322	0.0155				
323	0.01217				
324	0.009399999999999999				
325	0.00878				
326	0.00586				
327	0.00527				
328	0.00384				
329	0.00253				
330	0.00329				
331	0.004050000000000001				
332	0.00245				
333	0.00272				
334	0.00121				
335	0.00095				
336	0.00083				
337	0.0020399999999999997				
338	0.00232				
339	0.0019				
340	0.00156				
341	0.00317				
342	0.00094				
343	0.00157				
344	0.001				
345	0.00231				
346	0.00104				
347	0.00064				
348	0.00194				
349	0.0010199999999999999				
350	0.00182				
351	0.00147				
352	0.00172				
353	0.00306				
354	0.00172				
355	0.0018				
356	0.00122				
357	0.00146				
358	0.00292				
359	0.00244				
360	0.0027900000000000004				
361	0.00398				
362	0.0039900000000000005				
363	0.00423				
364	0.00504				
365	0.00387				
366	0.00529				
367	0.00621				
368	0.00827				
369	0.00872				
370	0.011240000000000002				
371	0.01224				
372	0.01276				
373	0.01425				
374	0.01608				
375	0.01963				
376	0.02105				
377	0.02521				
378	0.02947				
379	0.03357				
380	0.03827				
381	0.04579				
382	0.052539999999999996				
383	0.062220000000000004				
384	0.07232999999999999				
385	0.08428000000000001				
386	0.09601000000000001				
387	0.1116				
388	0.13172				
389	0.15348				
390	0.17920999999999998				
391	0.20437999999999998				
392	0.2373				
393	0.26614				
394	0.30733				
395	0.33521999999999996				
396	0.36758				
397	0.39831000000000005				
398	0.42645000000000005				
399	0.45573				
400	0.47945				
401	0.49861				
402	0.52137				
403	0.53938				
404	0.56848				
405	0.59207				
406	0.61561				
407	0.6528				
408	0.68717				
409	0.73685				
410	0.77472				
411	0.81916				
412	0.84813				
413	0.8845999999999999				
414	0.9099200000000001				
415	0.9338500000000001				
416	0.94538				
417	0.95381				
418	0.95994				
419	0.9643999999999999				
420	0.96419				
421	0.96616				
422	0.9670099999999999				
423	0.9671299999999999				
424	0.9684699999999999				
425	0.96894				
426	0.97013				
427	0.97225				
428	0.97304				
429	0.97411				
430	0.97356				
431	0.97526				
432	0.9762900000000001				
433	0.97623				
434	0.97654				
435	0.97745				
436	0.97768				
437	0.9764				
438	0.97586				
439	0.9763				
440	0.97451				
441	0.97438				
442	0.97399				
443	0.9726600000000001				
444	0.97131				
445	0.97173				
446	0.97149				
447	0.97041				
448	0.9704699999999999				
449	0.9699899999999999				
450	0.97055				
451	0.9693999999999999				
452	0.96989				
453	0.97083				
454	0.97015				
455	0.97024				
456	0.9718000000000001				
457	0.9732				
458	0.9726300000000001				
459	0.97454				
460	0.9749				
461	0.97469				
462	0.9760899999999999				
463	0.9764				
464	0.9779399999999999				
465	0.97747				
466	0.9782599999999999				
467	0.97795				
468	0.97832				
469	0.97795				
470	0.97784				
471	0.97872				
472	0.9773900000000001				
473	0.9767199999999999				
474	0.97737				
475	0.9761700000000001				
476	0.97619				
477	0.97598				
478	0.97461				
479	0.9741599999999999				
480	0.97383				
481	0.97301				
482	0.97269				
483	0.9725499999999999				
484	0.97158				
485	0.97064				
486	0.9704600000000001				
487	0.9691500000000001				
488	0.96997				
489	0.97056				
490	0.96863				
491	0.9686				
492	0.96934				
493	0.96941				
494	0.96951				
495	0.9688				
496	0.97016				
497	0.96909				
498	0.97031				
499	0.97002				
500	0.97095				
501	0.97065				
502	0.9725499999999999				
503	0.9718300000000001				
504	0.9745699999999999				
505	0.9731799999999999				
506	0.9737399999999999				
507	0.97399				
508	0.97533				
509	0.97518				
510	0.9752299999999999				
511	0.97622				
512	0.97761				
513	0.9765999999999999				
514	0.9776699999999999				
515	0.97758				
516	0.97812				
517	0.97828				
518	0.9777800000000001				
519	0.97894				
520	0.9777				
521	0.9783700000000001				
522	0.97785				
523	0.9795				
524	0.9792400000000001				
525	0.97907				
526	0.97824				
527	0.97953				
528	0.9795099999999999				
529	0.9790300000000001				
530	0.9776900000000001				
531	0.97772				
532	0.9773900000000001				
533	0.9768899999999999				
534	0.9771599999999999				
535	0.9775				
536	0.97626				
537	0.9756900000000001				
538	0.9755800000000001				
539	0.97479				
540	0.9745				
541	0.97381				
542	0.97529				
543	0.97489				
544	0.97393				
545	0.97358				
546	0.9740300000000001				
547	0.9725400000000001				
548	0.97359				
549	0.97272				
550	0.97222				
551	0.9719				
552	0.97249				
553	0.97343				
554	0.97331				
555	0.9719599999999999				
556	0.9726600000000001				
557	0.9729800000000001				
558	0.97466				
559	0.9727				
560	0.97283				
561	0.97494				
562	0.97398				
563	0.97261				
564	0.97479				
565	0.9755400000000001				
566	0.97584				
567	0.97469				
568	0.9756199999999999				
569	0.9752500000000001				
570	0.9745699999999999				
571	0.97402				
572	0.97473				
573	0.97456				
574	0.97586				
575	0.97795				
576	0.9756999999999999				
577	0.97653				
578	0.97777				
579	0.97635				
580	0.97698				
581	0.97847				
582	0.97746				
583	0.97892				
584	0.97658				
585	0.97796				
586	0.97784				
587	0.9778199999999999				
588	0.97844				
589	0.9759				
590	0.9791500000000001				
591	0.9784				
592	0.97759				
593	0.97803				
594	0.97774				
595	0.9803400000000001				
596	0.9790399999999999				
597	0.97667				
598	0.9795099999999999				
599	0.9786400000000001				
600	0.9779399999999999				
601	0.97967				
602	0.97851				
603	0.9790800000000001				
604	0.97918				
605	0.97932				
606	0.97756				
607	0.97749				
608	0.9781799999999999				
609	0.9782299999999999				
610	0.978				
611	0.9787399999999999				
612	0.97907				
613	0.97895				
614	0.97812				
615	0.97761				
616	0.9790000000000001				
617	0.97875				
618	0.9778				
619	0.97757				
620	0.97772				
621	0.97937				
622	0.97709				
623	0.9761299999999999				
624	0.97773				
625	0.97636				
626	0.97845				
627	0.9785299999999999				
628	0.97938				
629	0.9793600000000001				
630	0.97921				
631	0.98055				
632	0.97663				
633	0.9787300000000001				
634	0.9785299999999999				
635	0.97741				
636	0.97872				
637	0.9788				
638	0.97795				
639	0.9790399999999999				
640	0.98245				
641	0.97834				
642	0.9786499999999999				
643	0.97952				
644	0.98394				
645	0.97883				
646	0.98102				
647	0.9806900000000001				
648	0.98253				
649	0.98236				
650	0.98328				
651	0.9824200000000001				
652	0.9842799999999999				
653	0.9819199999999999				
654	0.98248				
655	0.98268				
656	0.9822799999999999				
657	0.9803499999999999				
658	0.9817199999999999				
659	0.9839100000000001				
660	0.98086				
661	0.9816800000000001				
662	0.98265				
663	0.9814799999999999				
664	0.9830599999999999				
665	0.9804200000000001				
666	0.98516				
667	0.98321				
668	0.9832				
669	0.98265				
670	0.9819499999999999				
671	0.98264				
672	0.9831799999999999				
673	0.98249				
674	0.98287				
675	0.9818399999999999				
676	0.9827899999999999				
677	0.9822799999999999				
678	0.98182				
679	0.98199				
680	0.98336				
681	0.9837699999999999				
682	0.9820399999999999				
683	0.98199				
684	0.98262				
685	0.98096				
686	0.9819499999999999				
687	0.98334				
688	0.9794700000000001				
689	0.98122				
690	0.9804600000000001				
691	0.98098				
692	0.98163				
693	0.9811700000000001				
694	0.97953				
695	0.9804600000000001				
696	0.98173				
697	0.97905				
698	0.97807				
699	0.98003				
700	0.98115				
701	0.97886				
702	0.9780599999999999				
703	0.97953				
704	0.9790000000000001				
705	0.9811				
706	0.97693				
707	0.97939				
708	0.9772				
709	0.9784999999999999				
710	0.97797				
711	0.9774200000000001				
712	0.97652				
713	0.97795				
714	0.9782299999999999				
715	0.9753799999999999				
716	0.97476				
717	0.9752500000000001				
718	0.97816				
719	0.97564				
720	0.9758499999999999				
721	0.9771				
722	0.97482				
723	0.9728				
724	0.9741599999999999				
725	0.9731399999999999				
726	0.9753700000000001				
727	0.97467				
728	0.9723900000000001				
729	0.9746299999999999				
730	0.97352				
731	0.97358				
732	0.9743				
733	0.9752200000000001				
734	0.9728				
735	0.97107				
736	0.9721599999999999				
737	0.9753000000000001				
738	0.9731799999999999				
739	0.9748399999999999				
740	0.9737699999999999				
741	0.9749099999999999				
742	0.96821				
743	0.9739				
744	0.9729000000000001				
745	0.97426				
746	0.97284				
747	0.9710599999999999				
748	0.96828				
749	0.9742000000000001				
750	0.9668899999999999				
751	0.9714100000000001				
752	0.9672799999999999				
753	0.9732500000000001				
754	0.97199				
755	0.96856				
756	0.96811				
757	0.9704699999999999				
758	0.9702200000000001				
759	0.97068				
760	0.9650799999999999				
761	0.96939				
762	0.96803				
763	0.97131				
764	0.9698699999999999				
765	0.96505				
766	0.9670000000000001				
767	0.96596				
768	0.96724				
769	0.96384				
770	0.96576				
771	0.96167				
772	0.96026				
773	0.9618099999999999				
774	0.96018				
775	0.9613299999999999				
776	0.95812				
777	0.9579000000000001				
778	0.95672				
779	0.95768				
780	0.9538				
781	0.9597				
782	0.95756				
783	0.9547599999999999				
784	0.95003				
785	0.95135				
786	0.9514900000000001				
787	0.9547100000000001				
788	0.9460999999999999				
789	0.94932				
790	0.94452				
791	0.93899				
792	0.94703				
793	0.94503				
794	0.9484999999999999				
795	0.9388500000000001				
796	0.93762				
797	0.938				
798	0.9381499999999999				
799	0.93463				
800	0.938				
801	0.93475				
802	0.93155				
803	0.92806				
804	0.92463				
805	0.92522				
806	0.92342				
807	0.91862				
808	0.9192				
809	0.92048				
810	0.9187000000000001				
811	0.9152				
812	0.91452				
813	0.91664				
814	0.91381				
815	0.91569				
816	0.91102				
817	0.90974				
818	0.9058499999999999				
819	0.90553				
820	0.90524				
821	0.89932				
822	0.90091				
823	0.89424				
824	0.8954000000000001				
825	0.8936700000000001				
826	0.8909				
827	0.88842				
828	0.88786				
829	0.88322				
830	0.8871899999999999				
831	0.8796200000000001				
832	0.88319				
833	0.8779300000000001				
834	0.8740399999999999				
835	0.8726900000000001				
836	0.87592				
837	0.87434				
838	0.87327				
839	0.8668600000000001				
840	0.86157				
841	0.86139				
842	0.85577				
843	0.8615600000000001				
844	0.85976				
845	0.8587				
846	0.85592				
847	0.8518600000000001				
848	0.85258				
849	0.8504200000000001				
850	0.8452200000000001				
