Wavelength	Transmittance	hex_color	Manufacturer	Name	Filter Number
450	0.0818	#838383	Omega	ABSORPTIVE ND1.0 Neutral Density	W4863
451	0.08287000000000001				
452	0.08376				
453	0.08485				
454	0.08576				
455	0.08664				
456	0.08736000000000001				
457	0.08803000000000001				
458	0.08869999999999999				
459	0.08924				
460	0.08968999999999999				
461	0.0901				
462	0.09035				
463	0.0906				
464	0.09058999999999999				
465	0.09076000000000001				
466	0.09054000000000001				
467	0.09041				
468	0.09026999999999999				
469	0.09000999999999999				
470	0.08960000000000001				
471	0.08938				
472	0.08887				
473	0.08867000000000001				
474	0.08825				
475	0.08782				
476	0.08750999999999999				
477	0.08704				
478	0.08668				
479	0.08628				
480	0.08588				
481	0.08548				
482	0.08517				
483	0.08471999999999999				
484	0.08433				
485	0.08393				
486	0.08361				
487	0.08320999999999999				
488	0.083				
489	0.08277				
490	0.08245				
491	0.08224999999999999				
492	0.08193				
493	0.08178				
494	0.08151				
495	0.0814				
496	0.08116				
497	0.08098000000000001				
498	0.08073999999999999				
499	0.08053				
500	0.08051				
501	0.0803				
502	0.08018				
503	0.08001				
504	0.07998				
505	0.07998				
506	0.07982				
507	0.07988				
508	0.07987				
509	0.07982				
510	0.0799				
511	0.07988				
512	0.08010999999999999				
513	0.08021				
514	0.08028				
515	0.08048999999999999				
516	0.08071				
517	0.08085				
518	0.08102000000000001				
519	0.08127000000000001				
520	0.08148999999999999				
521	0.08169				
522	0.08196999999999999				
523	0.08220000000000001				
524	0.08247				
525	0.0828				
526	0.08308				
527	0.08346				
528	0.08375				
529	0.08412000000000001				
530	0.08437				
531	0.08473000000000001				
532	0.08524				
533	0.08555				
534	0.08581				
535	0.08628999999999999				
536	0.08651				
537	0.08702				
538	0.08706				
539	0.08742000000000001				
540	0.08767				
541	0.08789				
542	0.08821				
543	0.0883				
544	0.08839999999999999				
545	0.08856				
546	0.08881				
547	0.0889				
548	0.08875999999999999				
549	0.08897000000000001				
550	0.08879				
551	0.08864000000000001				
552	0.08872				
553	0.08871000000000001				
554	0.08845				
555	0.0883				
556	0.08802				
557	0.08787				
558	0.08762				
559	0.08732				
560	0.08696				
561	0.08671				
562	0.08627000000000001				
563	0.0861				
564	0.08556				
565	0.08521000000000001				
566	0.08491				
567	0.08445				
568	0.08407999999999999				
569	0.0837				
570	0.08313000000000001				
571	0.0828				
572	0.08228999999999999				
573	0.0819				
574	0.08138999999999999				
575	0.08093				
576	0.0806				
577	0.08019				
578	0.07989				
579	0.07949				
580	0.07908				
581	0.07871				
582	0.07833999999999999				
583	0.07814				
584	0.07776				
585	0.07748000000000001				
586	0.07732				
587	0.07705000000000001				
588	0.07698				
589	0.07681				
590	0.07673				
591	0.07675				
592	0.07673				
593	0.07683				
594	0.07689				
595	0.07711				
596	0.07712				
597	0.07736				
598	0.07751999999999999				
599	0.07787				
600	0.078				
601	0.07828				
602	0.07855000000000001				
603	0.07875				
604	0.07899				
605	0.07932				
606	0.07962				
607	0.07985				
608	0.08023				
609	0.08045999999999999				
610	0.08071999999999999				
611	0.08103999999999999				
612	0.08135999999999999				
613	0.08169				
614	0.08184				
615	0.08221				
616	0.08245				
617	0.08266				
618	0.08295				
619	0.08311				
620	0.08337				
621	0.08356				
622	0.08377000000000001				
623	0.08391				
624	0.08402				
625	0.08423				
626	0.08428000000000001				
627	0.08449				
628	0.08459				
629	0.08464				
630	0.08476				
631	0.08449999999999999				
632	0.08459				
633	0.08467000000000001				
634	0.08464				
635	0.08474999999999999				
636	0.08471000000000001				
637	0.08457				
638	0.08448				
639	0.08442999999999999				
640	0.08439				
641	0.08452				
642	0.08446999999999999				
643	0.08445				
644	0.08454				
645	0.08468				
646	0.08489000000000001				
647	0.08506999999999999				
648	0.08519				
649	0.08526				
650	0.08544				
651	0.08564999999999999				
652	0.08595000000000001				
653	0.08616				
654	0.08651999999999999				
655	0.08677				
656	0.08715				
657	0.08769				
658	0.08800000000000001				
659	0.08846				
660	0.08895				
661	0.08962999999999999				
662	0.09028				
663	0.09096				
664	0.09161				
665	0.09237999999999999				
666	0.09359				
667	0.09444000000000001				
668	0.09534000000000001				
669	0.09634999999999999				
670	0.09741				
671	0.09885				
672	0.09983				
673	0.10113				
674	0.10266				
675	0.1039				
676	0.10528				
677	0.10685				
678	0.10832000000000001				
679	0.10980000000000001				
680	0.11141999999999999				
681	0.11309				
682	0.11444000000000001				
683	0.11606999999999999				
684	0.11757				
685	0.11929000000000001				
686	0.12057999999999999				
687	0.12219				
688	0.12372999999999999				
689	0.12507				
690	0.12663				
691	0.12811				
692	0.12939				
693	0.13069				
694	0.13205999999999998				
695	0.13315				
696	0.13457				
697	0.13577				
698	0.13716				
699	0.13828				
700	0.13956				
701	0.14044				
702	0.14141				
703	0.14251				
704	0.14348				
705	0.14422000000000001				
706	0.14522000000000002				
707	0.14606				
708	0.14697				
709	0.14752				
710	0.14837999999999998				
711	0.14926				
712	0.14968				
713	0.1502				
714	0.1505				
715	0.1512				
716	0.15170999999999998				
717	0.15192				
718	0.15227000000000002				
719	0.15264				
720	0.15289				
721	0.15298				
722	0.15312				
723	0.15362				
724	0.15404				
725	0.15395				
726	0.15449				
727	0.15420999999999999				
728	0.15426				
729	0.15458				
730	0.15456				
731	0.15471000000000001				
732	0.1548				
733	0.15489				
734	0.15484				
735	0.15505000000000002				
736	0.15496000000000001				
737	0.15477				
738	0.15464				
739	0.15447				
740	0.15488				
741	0.15476				
742	0.15472				
743	0.15459				
744	0.15432				
745	0.15425				
746	0.15393				
747	0.15393				
748	0.15383				
749	0.15378				
750	0.15376				
