Wavelength	Transmittance	hex_color	Manufacturer	Name	Filter Number
350	0.0	#E42931	MidOpt	Amber Interference Bandpass Filter	Bi615
352	0.0				
354	0.0				
356	0.0				
358	0.0				
360	0.0				
362	0.0				
364	0.0				
366	0.0				
368	0.0				
370	0.0				
372	0.0				
374	0.0				
376	0.0				
378	0.0001				
380	0.0001				
382	0.0001				
384	0.0001				
386	0.0				
388	0.0001				
390	0.0001				
392	0.0001				
394	0.0001				
396	0.0001				
398	0.0001				
400	0.0001				
402	0.0001				
404	0.0001				
406	0.0001				
408	0.0001				
410	0.0001				
412	0.0001				
414	0.0001				
416	0.0				
418	0.0				
420	0.0001				
422	0.0001				
424	0.0001				
426	0.0002				
428	0.0003				
430	0.0004				
432	0.0005				
434	0.0004				
436	0.0003				
438	0.0002				
440	0.0002				
442	0.0002				
444	0.0002				
446	0.0002				
448	0.0002				
450	0.0002				
452	0.0001				
454	0.0001				
456	0.0001				
458	0.0001				
460	0.0001				
462	0.0001				
464	0.0001				
466	0.0001				
468	0.0001				
470	0.0001				
472	0.0002				
474	0.0004				
476	0.0007000000000000001				
478	0.001				
480	0.0012				
482	0.001				
484	0.0007000000000000001				
486	0.0004				
488	0.0003				
490	0.0003				
492	0.0003				
494	0.0003				
496	0.0003				
498	0.0003				
500	0.0004				
502	0.0003				
504	0.0003				
506	0.0003				
508	0.0003				
510	0.0004				
512	0.0004				
514	0.0004				
516	0.0003				
518	0.0003				
520	0.0003				
522	0.0002				
524	0.0002				
526	0.0002				
528	0.0002				
530	0.0002				
532	0.0001				
534	0.0002				
536	0.0003				
538	0.0004				
540	0.0005				
542	0.0007000000000000001				
544	0.001				
546	0.0013				
548	0.0017000000000000001				
550	0.0019				
552	0.0019				
554	0.0016				
556	0.0012				
558	0.0009				
560	0.0007000000000000001				
562	0.0006				
564	0.0006				
566	0.0007000000000000001				
568	0.0007000000000000001				
570	0.0007000000000000001				
572	0.0006				
574	0.0007000000000000001				
576	0.0007000000000000001				
578	0.0008				
580	0.0008				
582	0.0009				
584	0.001				
586	0.0012				
588	0.0017000000000000001				
590	0.0034999999999999996				
592	0.0096				
594	0.0313				
596	0.0872				
598	0.1948				
600	0.3567				
602	0.5473				
604	0.7203				
606	0.8387				
608	0.899				
610	0.9227				
612	0.9298000000000001				
614	0.9255				
616	0.9053				
618	0.8569				
620	0.7626999999999999				
622	0.6148				
624	0.43189999999999995				
626	0.2553				
628	0.12539999999999998				
630	0.052199999999999996				
632	0.0209				
634	0.009399999999999999				
636	0.0051				
638	0.0034999999999999996				
640	0.003				
642	0.003				
644	0.0033				
646	0.0034999999999999996				
648	0.0033				
650	0.0028000000000000004				
652	0.0022				
654	0.0016				
656	0.0013				
658	0.0012				
660	0.0013				
662	0.0015				
664	0.0018				
666	0.0022				
668	0.0026				
670	0.0028000000000000004				
672	0.0028000000000000004				
674	0.0025				
676	0.0021				
678	0.0017000000000000001				
680	0.0014000000000000002				
682	0.0011				
684	0.0009				
686	0.0008				
688	0.0008				
690	0.0008				
692	0.0007000000000000001				
694	0.0007000000000000001				
696	0.0007000000000000001				
698	0.0006				
700	0.0006				
702	0.0005				
704	0.0004				
706	0.0004				
708	0.0003				
710	0.0003				
712	0.0003				
714	0.0003				
716	0.0003				
718	0.0004				
720	0.0004				
722	0.0004				
724	0.0004				
726	0.0004				
728	0.0004				
730	0.0004				
732	0.0003				
734	0.0003				
736	0.0003				
738	0.0003				
740	0.0003				
742	0.0003				
744	0.0003				
746	0.0004				
748	0.0005				
750	0.0006				
752	0.0006				
754	0.0006				
756	0.0006				
758	0.0005				
760	0.0004				
762	0.0003				
764	0.0002				
766	0.0002				
768	0.0002				
770	0.0002				
772	0.0002				
774	0.0002				
776	0.0002				
778	0.0003				
780	0.0003				
782	0.0004				
784	0.0005				
786	0.0006				
788	0.0006				
790	0.0007000000000000001				
792	0.0007000000000000001				
794	0.0007000000000000001				
796	0.0007000000000000001				
798	0.0006				
800	0.0007000000000000001				
802	0.0007000000000000001				
804	0.0007000000000000001				
806	0.0008				
808	0.001				
810	0.0012				
812	0.0014000000000000002				
814	0.0015				
816	0.0016				
818	0.0016				
820	0.0016				
822	0.0017000000000000001				
824	0.0018				
826	0.0022				
828	0.0026				
830	0.0032				
832	0.0034999999999999996				
834	0.0036				
836	0.0032				
838	0.0026				
840	0.0019				
842	0.0014000000000000002				
844	0.001				
846	0.0007000000000000001				
848	0.0006				
850	0.0006				
852	0.0005				
854	0.0004				
856	0.0004				
858	0.0004				
860	0.0003				
862	0.0003				
864	0.0003				
866	0.0003				
868	0.0003				
870	0.0003				
872	-0.0003				
874	0.001				
876	0.0021				
878	0.0029				
880	0.0019				
882	0.0012				
884	0.0009				
886	0.0002				
888	0.0002				
890	0.0001				
892	0.0003				
894	0.0				
896	0.0004				
898	0.0005				
900	0.0009				
902	0.001				
904	0.0012				
906	0.0006				
908	0.0001				
910	0.0005				
912	0.0004				
914	0.0004				
916	-0.0001				
918	0.0001				
920	0.0004				
922	0.0008				
924	0.0006				
926	0.0002				
928	0.0001				
930	0.0003				
932	0.0004				
934	0.0002				
936	0.0				
938	0.0002				
940	0.0004				
942	0.0003				
944	0.0001				
946	0.0				
948	0.0001				
950	0.0002				
952	0.0003				
954	0.0001				
956	0.0002				
958	0.0001				
960	0.0002				
962	0.0001				
964	0.0001				
966	0.0				
968	0.0				
970	0.0				
972	0.0001				
974	0.0003				
976	0.0002				
978	0.0002				
980	0.0001				
982	0.0001				
984	0.0002				
986	0.0002				
988	0.0002				
990	0.0002				
992	0.0003				
994	0.0004				
996	0.0003				
998	0.0001				
1000	0.0				
1002	0.0				
1004	0.0001				
1006	0.0001				
1008	0.0001				
1010	0.0001				
1012	0.0001				
1014	0.0001				
1016	0.0001				
1018	0.0001				
1020	0.0001				
1022	0.0				
1024	0.0001				
1026	0.0001				
1028	0.0003				
1030	0.0003				
1032	0.0002				
1034	0.0001				
1036	0.0002				
1038	0.0002				
1040	0.0002				
1042	0.0002				
1044	0.0003				
1046	0.0002				
1048	0.0003				
1050	0.0003				
1052	0.0004				
1054	0.0004				
1056	0.0004				
1058	0.0006				
1060	0.0008				
1062	0.0012				
1064	0.0017000000000000001				
1066	0.0025				
1068	0.0034000000000000002				
1070	0.0045000000000000005				
1072	0.0054				
1074	0.0059				
1076	0.006				
1078	0.005600000000000001				
1080	0.0049				
1082	0.0044				
1084	0.0039000000000000003				
1086	0.0034999999999999996				
1088	0.0033				
1090	0.0032				
1092	0.0034000000000000002				
1094	0.0034999999999999996				
1096	0.004				
1098	0.004699999999999999				
1100	0.0055000000000000005				
