Wavelength	Transmittance	hex_color	Manufacturer	Name	Filter Number
380	0.28935	#838383	Chroma	Unnamed	T685lpxr
381	0.28239000000000003				
382	0.27641				
383	0.29317				
384	0.30967				
385	0.30435				
386	0.34651000000000004				
387	0.45616				
388	0.48725999999999997				
389	0.45978				
390	0.45451				
391	0.50121				
392	0.53185				
393	0.52504				
394	0.49577				
395	0.45592				
396	0.44401				
397	0.48099				
398	0.53952				
399	0.53357				
400	0.46253999999999995				
401	0.40475				
402	0.42394				
403	0.49351999999999996				
404	0.5428799999999999				
405	0.51417				
406	0.45488				
407	0.43226				
408	0.46773000000000003				
409	0.53806				
410	0.5883700000000001				
411	0.59406				
412	0.57436				
413	0.5513				
414	0.54372				
415	0.5476800000000001				
416	0.55737				
417	0.56316				
418	0.55609				
419	0.52522				
420	0.48100000000000004				
421	0.43172				
422	0.38240999999999997				
423	0.34778				
424	0.32859				
425	0.33757				
426	0.36347999999999997				
427	0.36524				
428	0.32206				
429	0.24409				
430	0.18552				
431	0.1612				
432	0.18853999999999999				
433	0.28081				
434	0.38615				
435	0.42028				
436	0.36882				
437	0.28498				
438	0.23124				
439	0.24111000000000002				
440	0.31829999999999997				
441	0.36023000000000005				
442	0.36103				
443	0.33485				
444	0.23437999999999998				
445	0.11288999999999999				
446	0.04122				
447	0.01565				
448	0.00641				
449	0.00297				
450	0.00191				
451	0.00131				
452	0.00092				
453	0.00083				
454	0.00077				
455	0.00067				
456	0.00091				
457	0.00115				
458	0.00188				
459	0.00242				
460	0.00441				
461	0.00826				
462	0.01655				
463	0.026629999999999997				
464	0.03399				
465	0.03712				
466	0.04089				
467	0.05283				
468	0.0797				
469	0.13938				
470	0.24751				
471	0.38314				
472	0.46484000000000003				
473	0.46562				
474	0.47836				
475	0.51244				
476	0.50944				
477	0.45693				
478	0.39835				
479	0.37793				
480	0.42554000000000003				
481	0.50777				
482	0.54982				
483	0.49937				
484	0.43383000000000005				
485	0.39698				
486	0.31379999999999997				
487	0.18857				
488	0.12923				
489	0.14169				
490	0.20721				
491	0.31219				
492	0.36306				
493	0.30458999999999997				
494	0.20986999999999997				
495	0.14905				
496	0.12396000000000001				
497	0.13846999999999998				
498	0.19579000000000002				
499	0.29618				
500	0.39714				
501	0.40319000000000005				
502	0.31990999999999997				
503	0.24943				
504	0.23483				
505	0.24218				
506	0.22126				
507	0.15241				
508	0.08424				
509	0.04104				
510	0.023610000000000003				
511	0.01693				
512	0.014110000000000001				
513	0.01369				
514	0.01485				
515	0.01647				
516	0.016319999999999998				
517	0.013309999999999999				
518	0.00908				
519	0.00553				
520	0.0034300000000000003				
521	0.00233				
522	0.00199				
523	0.0017399999999999998				
524	0.00172				
525	0.0019				
526	0.00217				
527	0.0027400000000000002				
528	0.0033900000000000002				
529	0.00316				
530	0.00254				
531	0.00168				
532	0.00115				
533	0.00074				
534	0.0005899999999999999				
535	0.0005				
536	0.0005099999999999999				
537	0.0005099999999999999				
538	0.00053				
539	0.0005899999999999999				
540	0.0008100000000000001				
541	0.00116				
542	0.00127				
543	0.00128				
544	0.0011200000000000001				
545	0.00083				
546	0.0005899999999999999				
547	0.0004				
548	0.00031				
549	0.00027				
550	0.00025				
551	0.00024				
552	0.00031				
553	0.00033				
554	0.00054				
555	0.00066				
556	0.00077				
557	0.0009299999999999999				
558	0.00074				
559	0.0005600000000000001				
560	0.0004				
561	0.00032				
562	0.00028000000000000003				
563	0.00027				
564	0.00026				
565	0.00023				
566	0.00028000000000000003				
567	0.00028000000000000003				
568	0.00037999999999999997				
569	0.00046				
570	0.00058				
571	0.0007599999999999999				
572	0.0008500000000000001				
573	0.00091				
574	0.00075				
575	0.00066				
576	0.0005600000000000001				
577	0.00055				
578	0.00054				
579	0.00043999999999999996				
580	0.00045				
581	0.00049				
582	0.00043999999999999996				
583	0.0005				
584	0.00067				
585	0.0007000000000000001				
586	0.00095				
587	0.00091				
588	0.0008699999999999999				
589	0.00099				
590	0.00098				
591	0.00099				
592	0.001				
593	0.00117				
594	0.00128				
595	0.00156				
596	0.0017699999999999999				
597	0.00221				
598	0.0027900000000000004				
599	0.00321				
600	0.00367				
601	0.00373				
602	0.00307				
603	0.00256				
604	0.00218				
605	0.0017100000000000001				
606	0.00157				
607	0.00136				
608	0.00146				
609	0.00157				
610	0.00167				
611	0.00187				
612	0.00232				
613	0.0031				
614	0.0045000000000000005				
615	0.00639				
616	0.00827				
617	0.00949				
618	0.00904				
619	0.00707				
620	0.0054800000000000005				
621	0.0042699999999999995				
622	0.00334				
623	0.00309				
624	0.00292				
625	0.0028699999999999997				
626	0.00319				
627	0.00375				
628	0.00492				
629	0.00641				
630	0.01				
631	0.01773				
632	0.029500000000000002				
633	0.03721				
634	0.03161				
635	0.01936				
636	0.01053				
637	0.006059999999999999				
638	0.0039900000000000005				
639	0.00292				
640	0.00228				
641	0.00191				
642	0.0017100000000000001				
643	0.00153				
644	0.00151				
645	0.00136				
646	0.0012900000000000001				
647	0.00146				
648	0.00157				
649	0.0015				
650	0.0017100000000000001				
651	0.00194				
652	0.00219				
653	0.0025900000000000003				
654	0.00315				
655	0.00383				
656	0.00462				
657	0.0058				
658	0.00741				
659	0.009389999999999999				
660	0.01161				
661	0.01393				
662	0.01647				
663	0.01885				
664	0.020790000000000003				
665	0.02251				
666	0.024				
667	0.025470000000000003				
668	0.02727				
669	0.02986				
670	0.03276				
671	0.03682				
672	0.043710000000000006				
673	0.05221				
674	0.06173				
675	0.07421				
676	0.09225				
677	0.11487				
678	0.14366				
679	0.18303999999999998				
680	0.22872				
681	0.28076				
682	0.33728				
683	0.39612				
684	0.45529000000000003				
685	0.52604				
686	0.60792				
687	0.7242700000000001				
688	0.83904				
689	0.92282				
690	0.96551				
691	0.97479				
692	0.97462				
693	0.9739				
694	0.97589				
695	0.97836				
696	0.98024				
697	0.9814400000000001				
698	0.9816800000000001				
699	0.98126				
700	0.98012				
701	0.9804200000000001				
702	0.9801000000000001				
703	0.9795900000000001				
704	0.9796299999999999				
705	0.9802500000000001				
706	0.9803000000000001				
707	0.98055				
708	0.9809699999999999				
709	0.98154				
710	0.98146				
711	0.98113				
712	0.98018				
713	0.98083				
714	0.98154				
715	0.9815999999999999				
716	0.98177				
717	0.98149				
718	0.98146				
719	0.98163				
720	0.9829399999999999				
721	0.98433				
722	0.98547				
723	0.9865600000000001				
724	0.9867400000000001				
725	0.98725				
726	0.98776				
727	0.9868000000000001				
728	0.9861				
729	0.9858				
730	0.9847100000000001				
731	0.9830599999999999				
732	0.9816400000000001				
733	0.98091				
734	0.9802				
735	0.9792799999999999				
736	0.97884				
737	0.9787300000000001				
738	0.97855				
739	0.97843				
740	0.9787				
741	0.9785699999999999				
742	0.97843				
743	0.9787				
744	0.97816				
745	0.9777				
746	0.9770699999999999				
747	0.97649				
748	0.97631				
749	0.97572				
750	0.9753400000000001				
751	0.9743999999999999				
752	0.9742700000000001				
753	0.97469				
754	0.97552				
755	0.97565				
756	0.9766400000000001				
757	0.97646				
758	0.97851				
759	0.9788800000000001				
760	0.9790300000000001				
761	0.97896				
762	0.9795099999999999				
763	0.9792799999999999				
764	0.9786				
765	0.97834				
766	0.97929				
767	0.97922				
768	0.97773				
769	0.9776				
770	0.9785200000000001				
771	0.97812				
772	0.97817				
773	0.9776900000000001				
774	0.97827				
775	0.97884				
776	0.97968				
777	0.9803700000000001				
778	0.98124				
779	0.98071				
780	0.98198				
781	0.9820300000000001				
782	0.9818399999999999				
783	0.98165				
784	0.98187				
785	0.9814700000000001				
786	0.9810500000000001				
787	0.98039				
788	0.9803799999999999				
789	0.9802299999999999				
790	0.98059				
791	0.98092				
792	0.9809300000000001				
793	0.9816800000000001				
794	0.9808199999999999				
795	0.98086				
796	0.98068				
797	0.98059				
798	0.9826999999999999				
799	0.98188				
800	0.9818600000000001				
801	0.98197				
802	0.9814				
803	0.981				
804	0.98102				
805	0.98124				
806	0.9797				
807	0.9792700000000001				
808	0.9787				
809	0.97851				
810	0.97942				
811	0.98036				
812	0.98009				
813	0.97922				
814	0.9776699999999999				
815	0.9798				
816	0.98066				
817	0.97974				
818	0.9785699999999999				
819	0.9782500000000001				
820	0.97821				
821	0.97886				
822	0.9797100000000001				
823	0.9793600000000001				
824	0.9784				
825	0.9787699999999999				
826	0.97923				
827	0.9781799999999999				
828	0.97815				
829	0.9780599999999999				
830	0.97844				
831	0.97883				
832	0.97934				
833	0.98001				
834	0.98003				
835	0.98032				
836	0.98092				
837	0.98083				
838	0.9810800000000001				
839	0.98169				
840	0.982				
841	0.98232				
842	0.98272				
843	0.98307				
844	0.9834				
845	0.98343				
846	0.9841				
847	0.9839100000000001				
848	0.98379				
849	0.9833				
850	0.9836199999999999				
851	0.98258				
852	0.9832				
853	0.9829600000000001				
854	0.98165				
855	0.98087				
856	0.98107				
857	0.9831699999999999				
858	0.9832299999999999				
859	0.98251				
860	0.9821500000000001				
861	0.98163				
862	0.98193				
863	0.9827800000000001				
864	0.98275				
865	0.98236				
866	0.98224				
867	0.98287				
868	0.98333				
869	0.9823099999999999				
870	0.9817400000000001				
871	0.9817100000000001				
872	0.9809300000000001				
873	0.97964				
874	0.97875				
875	0.9779300000000001				
876	0.97768				
877	0.97741				
878	0.97711				
879	0.97639				
880	0.97643				
881	0.9768399999999999				
882	0.9769199999999999				
883	0.97757				
884	0.97783				
885	0.97944				
886	0.98041				
887	0.98072				
888	0.98071				
889	0.98115				
890	0.981				
891	0.9811799999999999				
892	0.98134				
893	0.98127				
894	0.9815				
895	0.9818899999999999				
896	0.98178				
897	0.98158				
898	0.98167				
899	0.98146				
900	0.9810500000000001				
901	0.9802500000000001				
902	0.97961				
903	0.98005				
904	0.98057				
905	0.9803799999999999				
906	0.9809				
907	0.9808499999999999				
908	0.9805200000000001				
909	0.981				
910	0.98125				
911	0.9817100000000001				
912	0.9818300000000001				
913	0.98206				
914	0.98211				
915	0.9830200000000001				
916	0.98351				
917	0.9836400000000001				
918	0.9836499999999999				
919	0.9835699999999999				
920	0.98434				
921	0.98375				
922	0.9846699999999999				
923	0.98421				
924	0.9837				
925	0.98407				
926	0.98409				
927	0.98469				
928	0.98433				
929	0.98464				
930	0.98503				
931	0.9844700000000001				
932	0.9836100000000001				
933	0.98291				
934	0.98394				
935	0.9838899999999999				
936	0.9837699999999999				
937	0.98347				
938	0.9836100000000001				
939	0.98301				
940	0.98273				
941	0.9829000000000001				
942	0.98258				
943	0.98397				
944	0.98178				
945	0.9830599999999999				
946	0.98304				
947	0.98125				
948	0.98198				
949	0.98043				
950	0.9794499999999999				
951	0.9805200000000001				
952	0.98036				
953	0.98114				
954	0.98005				
955	0.97978				
956	0.98063				
957	0.97919				
958	0.9780599999999999				
959	0.97939				
960	0.9791200000000001				
961	0.97858				
962	0.97884				
963	0.97795				
964	0.97695				
965	0.9768399999999999				
966	0.9759399999999999				
967	0.97545				
968	0.9748399999999999				
969	0.97417				
970	0.97417				
971	0.9734900000000001				
972	0.97379				
973	0.97309				
974	0.9715699999999999				
975	0.97108				
976	0.97056				
977	0.9707899999999999				
978	0.97101				
979	0.9703400000000001				
980	0.96974				
981	0.9708100000000001				
982	0.9706999999999999				
983	0.97069				
984	0.9699				
985	0.9698399999999999				
986	0.9698399999999999				
987	0.9705800000000001				
988	0.9720799999999999				
989	0.97295				
990	0.9733799999999999				
991	0.97358				
992	0.97322				
993	0.97246				
994	0.97143				
995	0.97045				
996	0.96965				
997	0.9687300000000001				
998	0.9682				
999	0.96747				
1000	0.9665900000000001				
1001	0.96229				
1002	0.9599				
1003	0.95777				
1004	0.95339				
1005	0.9495600000000001				
1006	0.9453100000000001				
1007	0.9418000000000001				
1008	0.93975				
1009	0.93735				
1010	0.9344199999999999				
1011	0.9328799999999999				
1012	0.9287399999999999				
1013	0.9266800000000001				
1014	0.9256699999999999				
1015	0.92482				
1016	0.92405				
1017	0.9235899999999999				
1018	0.92408				
1019	0.92522				
1020	0.9289700000000001				
1021	0.92867				
1022	0.9291800000000001				
1023	0.9300400000000001				
1024	0.93101				
1025	0.93174				
1026	0.93119				
1027	0.93068				
1028	0.9296899999999999				
1029	0.9267400000000001				
1030	0.92199				
1031	0.9157				
1032	0.90833				
1033	0.8997799999999999				
1034	0.89071				
1035	0.8793899999999999				
1036	0.8668				
1037	0.85406				
1038	0.84112				
1039	0.8275				
1040	0.8126099999999999				
1041	0.79681				
1042	0.78175				
1043	0.76667				
1044	0.7519100000000001				
1045	0.73785				
1046	0.7241				
1047	0.7112900000000001				
1048	0.69949				
1049	0.6880200000000001				
1050	0.67888				
1051	0.6716500000000001				
1052	0.6645699999999999				
1053	0.65968				
1054	0.65781				
1055	0.65776				
1056	0.66025				
1057	0.6638299999999999				
1058	0.67156				
1059	0.68094				
1060	0.6927800000000001				
1061	0.70662				
1062	0.72378				
1063	0.7415600000000001				
1064	0.76				
1065	0.77669				
1066	0.79067				
1067	0.79963				
1068	0.80211				
1069	0.79848				
1070	0.78596				
1071	0.7679300000000001				
1072	0.74507				
1073	0.71869				
1074	0.6916899999999999				
1075	0.6676000000000001				
1076	0.6430899999999999				
1077	0.62302				
1078	0.60613				
1079	0.5919				
1080	0.58128				
1081	0.57358				
1082	0.56915				
1083	0.56631				
1084	0.56536				
1085	0.56586				
1086	0.56767				
1087	0.57063				
1088	0.57393				
1089	0.5774				
1090	0.58013				
1091	0.58308				
1092	0.58606				
1093	0.58954				
1094	0.59344				
1095	0.59888				
1096	0.60612				
1097	0.61698				
1098	0.63441				
1099	0.6611				
1100	0.69777				
