Wavelength	Transmittance	hex_color	Manufacturer	Name	Filter Number
380	0.00782	#838383	Chroma	Unnamed	ZT405/642rpc
381	0.008539999999999999				
382	0.009260000000000001				
383	0.00793				
384	0.00766				
385	0.00579				
386	0.00534				
387	0.00497				
388	0.00262				
389	0.005869999999999999				
390	0.00499				
391	0.00311				
392	0.00338				
393	0.00406				
394	0.0034100000000000003				
395	0.0011200000000000001				
396	0.00157				
397	0.0006				
398	0.0001				
399	5e-05				
400	3e-05				
401	0.00077				
402	0.0027700000000000003				
403	0.00123				
404	1e-05				
405	0.00029				
406	0.00045				
407	0.00079				
408	0.00246				
409	0.00603				
410	0.00881				
411	0.012509999999999999				
412	0.01613				
413	0.01367				
414	0.00898				
415	0.00489				
416	0.00597				
417	0.02566				
418	0.048179999999999994				
419	0.051070000000000004				
420	0.09376				
421	0.07606				
422	0.03698				
423	0.07511				
424	0.13305999999999998				
425	0.07589				
426	0.0632				
427	0.14146				
428	0.17986000000000002				
429	0.15896000000000002				
430	0.20781				
431	0.11105000000000001				
432	0.06749				
433	0.05058				
434	0.0825				
435	0.14769				
436	0.10787000000000001				
437	0.07089000000000001				
438	0.09066				
439	0.18573				
440	0.16207999999999997				
441	0.10453				
442	0.1219				
443	0.26004				
444	0.2969				
445	0.28036				
446	0.32254				
447	0.28591				
448	0.15192				
449	0.07364				
450	0.08546				
451	0.14903				
452	0.22169				
453	0.28998				
454	0.38859				
455	0.4814				
456	0.51076				
457	0.43244				
458	0.31028				
459	0.1881				
460	0.13778				
461	0.11953				
462	0.14451				
463	0.24399				
464	0.30940999999999996				
465	0.32399				
466	0.33376				
467	0.29948				
468	0.23942				
469	0.16908				
470	0.09564				
471	0.0867				
472	0.1718				
473	0.25984999999999997				
474	0.23537				
475	0.12792				
476	0.05762				
477	0.06492				
478	0.12307				
479	0.20135999999999998				
480	0.22375				
481	0.14534				
482	0.0683				
483	0.06770999999999999				
484	0.10827999999999999				
485	0.17905000000000001				
486	0.18395				
487	0.11071999999999999				
488	0.08138999999999999				
489	0.11666				
490	0.20955				
491	0.2438				
492	0.13175				
493	0.06022				
494	0.04807				
495	0.08115				
496	0.19357				
497	0.2502				
498	0.15214				
499	0.05941				
500	0.03312				
501	0.043789999999999996				
502	0.11613				
503	0.2369				
504	0.21467				
505	0.11923				
506	0.04569				
507	0.04038				
508	0.0934				
509	0.22849				
510	0.26030000000000003				
511	0.16682				
512	0.06487				
513	0.04503				
514	0.08625				
515	0.1891				
516	0.23094				
517	0.15249000000000001				
518	0.06596				
519	0.036610000000000004				
520	0.055990000000000005				
521	0.12885				
522	0.19632000000000002				
523	0.1506				
524	0.06609				
525	0.0248				
526	0.02236				
527	0.03812				
528	0.10128999999999999				
529	0.18462				
530	0.16646				
531	0.08294				
532	0.02757				
533	0.02265				
534	0.03415				
535	0.09538				
536	0.22946000000000003				
537	0.25346				
538	0.14098				
539	0.041449999999999994				
540	0.026459999999999997				
541	0.03021				
542	0.0478				
543	0.09838				
544	0.16792				
545	0.18697				
546	0.14203				
547	0.06673				
548	0.04476				
549	0.04742				
550	0.06268				
551	0.09398				
552	0.13612				
553	0.16899999999999998				
554	0.1434				
555	0.08685000000000001				
556	0.06056				
557	0.052919999999999995				
558	0.05348				
559	0.06098				
560	0.07912				
561	0.10451				
562	0.12086000000000001				
563	0.11574999999999999				
564	0.09569000000000001				
565	0.07658999999999999				
566	0.06639				
567	0.06675				
568	0.07727				
569	0.1067				
570	0.16445				
571	0.20821				
572	0.18420999999999998				
573	0.12464				
574	0.08080999999999999				
575	0.05609				
576	0.04792				
577	0.05437				
578	0.08435000000000001				
579	0.16571000000000002				
580	0.26645				
581	0.26149				
582	0.16695000000000002				
583	0.0761				
584	0.04351				
585	0.03753				
586	0.043789999999999996				
587	0.07171999999999999				
588	0.15523				
589	0.30568				
590	0.36328000000000005				
591	0.22371				
592	0.08127000000000001				
593	0.04482				
594	0.03752				
595	0.0409				
596	0.058890000000000005				
597	0.11402				
598	0.25442				
599	0.40633				
600	0.36411				
601	0.16323000000000001				
602	0.06841				
603	0.05149				
604	0.051980000000000005				
605	0.06614				
606	0.11001				
607	0.23199000000000003				
608	0.38515				
609	0.34627				
610	0.16127				
611	0.07165				
612	0.047060000000000005				
613	0.04045				
614	0.042910000000000004				
615	0.0574				
616	0.09597				
617	0.22373				
618	0.39171				
619	0.29924				
620	0.11689999999999999				
621	0.05348				
622	0.032400000000000005				
623	0.02512				
624	0.02268				
625	0.02395				
626	0.029750000000000002				
627	0.0501				
628	0.11929000000000001				
629	0.28378				
630	0.32028				
631	0.1522				
632	0.05193				
633	0.02306				
634	0.013859999999999999				
635	0.0098				
636	0.00776				
637	0.0066300000000000005				
638	0.00618				
639	0.006				
640	0.00612				
641	0.0066300000000000005				
642	0.00747				
643	0.00874				
644	0.01075				
645	0.01365				
646	0.0181				
647	0.025619999999999997				
648	0.03644				
649	0.0547				
650	0.08343				
651	0.13055999999999998				
652	0.19773				
653	0.28703				
654	0.38389				
655	0.4633				
656	0.53254				
657	0.61888				
658	0.7453400000000001				
659	0.88688				
660	0.96869				
661	0.9862099999999999				
662	0.9856				
663	0.9876999999999999				
664	0.99209				
665	0.99485				
666	0.995				
667	0.9924200000000001				
668	0.99112				
669	0.99115				
670	0.9913500000000001				
671	0.99232				
672	0.99017				
673	0.98604				
674	0.98129				
675	0.97725				
676	0.97492				
677	0.97462				
678	0.9752				
679	0.9793000000000001				
680	0.98304				
681	0.98545				
682	0.98788				
683	0.98957				
684	0.9899800000000001				
685	0.98968				
686	0.98929				
687	0.98906				
688	0.98854				
689	0.9874299999999999				
690	0.98617				
691	0.98527				
692	0.9838800000000001				
693	0.9826999999999999				
694	0.98245				
695	0.9822299999999999				
696	0.98334				
697	0.98496				
698	0.9855200000000001				
699	0.9868000000000001				
700	0.98749				
701	0.98756				
702	0.9871599999999999				
703	0.9864700000000001				
704	0.98536				
705	0.98527				
706	0.98393				
707	0.98342				
708	0.98199				
709	0.98149				
710	0.9822				
711	0.98206				
712	0.9818000000000001				
713	0.9826699999999999				
714	0.98295				
715	0.98411				
716	0.98536				
717	0.9860800000000001				
718	0.9860899999999999				
719	0.9849800000000001				
720	0.9847199999999999				
721	0.9848				
722	0.98443				
723	0.98384				
724	0.9842799999999999				
725	0.98413				
726	0.98476				
727	0.98442				
728	0.98406				
729	0.98394				
730	0.98287				
731	0.98324				
732	0.98238				
733	0.9818899999999999				
734	0.9819199999999999				
735	0.98084				
736	0.98053				
737	0.9804999999999999				
738	0.9809300000000001				
739	0.9818300000000001				
740	0.9825499999999999				
741	0.9831699999999999				
742	0.9834900000000001				
743	0.9833				
744	0.9836400000000001				
745	0.98275				
746	0.9827899999999999				
747	0.982				
748	0.98104				
749	0.9808				
750	0.9813200000000001				
751	0.98234				
752	0.9826900000000001				
753	0.98298				
754	0.98339				
755	0.98339				
756	0.9828199999999999				
757	0.98259				
758	0.98182				
759	0.98181				
760	0.98129				
761	0.98072				
762	0.97958				
763	0.9784				
764	0.97773				
765	0.97833				
766	0.97869				
767	0.97893				
768	0.97872				
769	0.9791				
770	0.9782299999999999				
771	0.97827				
772	0.97756				
773	0.97833				
774	0.97813				
775	0.9773099999999999				
776	0.9764499999999999				
777	0.97642				
778	0.9764400000000001				
779	0.97706				
780	0.97821				
781	0.9781799999999999				
782	0.9778100000000001				
783	0.9780200000000001				
784	0.97807				
785	0.97834				
786	0.9768899999999999				
787	0.9756100000000001				
788	0.97405				
789	0.97283				
790	0.97199				
791	0.9715				
792	0.97096				
793	0.97104				
794	0.97131				
795	0.9722				
796	0.9721899999999999				
797	0.97466				
798	0.97559				
799	0.9777				
800	0.98045				
