Wavelength	Transmittance	hex_color	Manufacturer	Name	Filter Number
300	0.18082	#838383	Chroma	Unnamed	ZT325/442rpc
301	0.14462999999999998				
302	0.11433				
303	0.11137999999999999				
304	0.09797				
305	0.08423				
306	0.08109999999999999				
307	0.07965				
308	0.08919				
309	0.10278999999999999				
310	0.10907				
311	0.08327				
312	0.040350000000000004				
313	0.01629				
314	0.00929				
315	0.00805				
316	0.00653				
317	0.0059499999999999996				
318	0.005580000000000001				
319	0.00443				
320	0.00436				
321	0.00436				
322	0.00367				
323	0.00345				
324	0.0037199999999999998				
325	0.0035199999999999997				
326	0.00362				
327	0.004079999999999999				
328	0.00481				
329	0.007169999999999999				
330	0.01362				
331	0.03589				
332	0.11338				
333	0.28376999999999997				
334	0.42507				
335	0.42357				
336	0.41024				
337	0.44642000000000004				
338	0.54017				
339	0.70613				
340	0.87771				
341	0.93392				
342	0.93806				
343	0.9422				
344	0.9475				
345	0.94883				
346	0.94687				
347	0.94633				
348	0.94709				
349	0.95104				
350	0.95702				
351	0.9652200000000001				
352	0.96509				
353	0.96526				
354	0.96938				
355	0.96831				
356	0.9628700000000001				
357	0.9606699999999999				
358	0.9566				
359	0.95714				
360	0.9570399999999999				
361	0.9616				
362	0.95966				
363	0.96147				
364	0.96611				
365	0.97003				
366	0.96637				
367	0.95745				
368	0.9529000000000001				
369	0.9485399999999999				
370	0.94817				
371	0.9507599999999999				
372	0.9554699999999999				
373	0.96108				
374	0.96572				
375	0.9665699999999999				
376	0.96473				
377	0.9571500000000001				
378	0.94841				
379	0.94116				
380	0.93541				
381	0.93174				
382	0.93274				
383	0.93826				
384	0.94471				
385	0.95217				
386	0.9566500000000001				
387	0.9627500000000001				
388	0.9620000000000001				
389	0.9623999999999999				
390	0.9618000000000001				
391	0.9605400000000001				
392	0.9633400000000001				
393	0.9706100000000001				
394	0.97455				
395	0.97392				
396	0.9741599999999999				
397	0.97466				
398	0.9748300000000001				
399	0.97174				
400	0.9664100000000001				
401	0.9615300000000001				
402	0.95986				
403	0.9595699999999999				
404	0.9610500000000001				
405	0.96454				
406	0.9691200000000001				
407	0.97245				
408	0.97544				
409	0.9753400000000001				
410	0.97103				
411	0.96256				
412	0.95026				
413	0.9357800000000001				
414	0.92655				
415	0.92321				
416	0.92944				
417	0.9440900000000001				
418	0.96202				
419	0.9654699999999999				
420	0.92747				
421	0.83557				
422	0.6946899999999999				
423	0.52923				
424	0.38903				
425	0.27802				
426	0.19513999999999998				
427	0.14169				
428	0.10276				
429	0.07799				
430	0.06089000000000001				
431	0.04781				
432	0.03923				
433	0.03266				
434	0.02798				
435	0.02452				
436	0.02173				
437	0.01954				
438	0.01803				
439	0.01679				
440	0.015569999999999999				
441	0.01512				
442	0.01489				
443	0.01466				
444	0.01459				
445	0.01477				
446	0.01512				
447	0.01567				
448	0.01664				
449	0.01766				
450	0.01918				
451	0.02083				
452	0.023119999999999998				
453	0.02603				
454	0.02959				
455	0.034300000000000004				
456	0.03981				
457	0.04746				
458	0.0562				
459	0.06849999999999999				
460	0.08337				
461	0.10395				
462	0.12829000000000002				
463	0.16132000000000002				
464	0.19997				
465	0.24894				
466	0.30189				
467	0.35593				
468	0.41011000000000003				
469	0.45606				
470	0.49609000000000003				
471	0.52561				
472	0.55238				
473	0.57886				
474	0.61522				
475	0.66419				
476	0.73398				
477	0.80792				
478	0.8832800000000001				
479	0.93512				
480	0.963				
481	0.9714499999999999				
482	0.96771				
483	0.96247				
484	0.95609				
485	0.9564100000000001				
486	0.9570000000000001				
487	0.95903				
488	0.9616899999999999				
489	0.9642700000000001				
490	0.96435				
491	0.96369				
492	0.9621200000000001				
493	0.95718				
494	0.95223				
495	0.9496899999999999				
496	0.94604				
497	0.94434				
498	0.945				
499	0.94548				
500	0.94872				
501	0.94903				
502	0.9555899999999999				
503	0.96241				
504	0.96187				
505	0.96627				
506	0.9740099999999999				
507	0.9787300000000001				
508	0.97695				
509	0.97571				
510	0.97603				
511	0.97559				
512	0.97363				
513	0.97111				
514	0.9691299999999999				
515	0.96773				
516	0.96712				
517	0.96501				
518	0.96384				
519	0.9636				
520	0.96426				
521	0.9661700000000001				
522	0.9684699999999999				
523	0.9709699999999999				
524	0.97378				
525	0.9765				
526	0.97762				
527	0.97851				
528	0.97846				
529	0.97812				
530	0.97909				
531	0.97834				
532	0.9771299999999999				
533	0.97685				
534	0.97506				
535	0.9725				
536	0.96958				
537	0.97029				
538	0.96937				
539	0.96852				
540	0.96811				
541	0.96887				
542	0.97045				
543	0.96954				
544	0.96852				
545	0.9692400000000001				
546	0.9724299999999999				
547	0.9753400000000001				
548	0.9776900000000001				
549	0.97938				
550	0.9793999999999999				
551	0.97974				
552	0.98036				
553	0.9802500000000001				
554	0.98033				
555	0.9788899999999999				
556	0.9778600000000001				
557	0.9788899999999999				
558	0.97828				
559	0.9778100000000001				
560	0.97655				
561	0.9748600000000001				
562	0.97404				
563	0.9749500000000001				
564	0.97548				
565	0.97443				
566	0.97387				
567	0.97628				
568	0.97836				
569	0.97635				
570	0.97955				
571	0.98103				
572	0.9820300000000001				
573	0.9814700000000001				
574	0.9834499999999999				
575	0.98366				
576	0.98425				
577	0.98315				
578	0.98208				
579	0.98175				
580	0.98055				
581	0.98054				
582	0.9792700000000001				
583	0.9790800000000001				
584	0.97824				
585	0.97771				
586	0.97673				
587	0.975				
588	0.97449				
589	0.9737300000000001				
590	0.97265				
591	0.9720799999999999				
592	0.97238				
593	0.97122				
594	0.9704699999999999				
595	0.9722700000000001				
596	0.97288				
597	0.97406				
598	0.9749599999999999				
599	0.97476				
600	0.9765600000000001				
601	0.97697				
602	0.97441				
603	0.9761299999999999				
604	0.97764				
605	0.97846				
606	0.97859				
607	0.9785200000000001				
608	0.97898				
609	0.9790099999999999				
610	0.9784900000000001				
611	0.97834				
612	0.9782899999999999				
613	0.9764499999999999				
614	0.97526				
615	0.97382				
616	0.9729800000000001				
617	0.9729399999999999				
618	0.97245				
619	0.97154				
620	0.97142				
621	0.97107				
622	0.9701099999999999				
623	0.96992				
624	0.97069				
625	0.97246				
626	0.9710500000000001				
627	0.97174				
628	0.97249				
629	0.9722799999999999				
630	0.9728100000000001				
631	0.97336				
632	0.97449				
633	0.97531				
634	0.97536				
635	0.9760500000000001				
636	0.9761799999999999				
637	0.9772				
638	0.97819				
639	0.9788800000000001				
640	0.97932				
641	0.97966				
642	0.98039				
643	0.98095				
644	0.9804999999999999				
645	0.98031				
646	0.97937				
647	0.9782299999999999				
648	0.9777899999999999				
649	0.97685				
650	0.97674				
651	0.9765900000000001				
652	0.97635				
653	0.9768000000000001				
654	0.97627				
655	0.97738				
656	0.9770099999999999				
657	0.97588				
658	0.97675				
659	0.97698				
660	0.97568				
661	0.97599				
662	0.97489				
663	0.97576				
664	0.9765				
665	0.97907				
666	0.97725				
667	0.97551				
668	0.97623				
669	0.97598				
670	0.9760800000000001				
671	0.9769100000000001				
672	0.97768				
673	0.9777				
674	0.9764				
675	0.97566				
676	0.975				
677	0.9754				
678	0.97564				
679	0.9732				
680	0.97072				
681	0.96989				
682	0.9697499999999999				
683	0.96967				
684	0.9693200000000001				
685	0.9688899999999999				
686	0.96904				
687	0.97003				
688	0.97004				
689	0.97083				
690	0.9714				
691	0.97138				
692	0.96997				
693	0.97148				
694	0.97256				
695	0.97282				
696	0.97331				
697	0.9732299999999999				
698	0.9728				
699	0.9725199999999999				
700	0.97221				
701	0.97048				
702	0.96852				
703	0.96539				
704	0.9606				
705	0.9557599999999999				
706	0.94879				
707	0.9407899999999999				
708	0.93149				
709	0.92181				
710	0.90925				
711	0.8955500000000001				
712	0.87995				
713	0.8640300000000001				
714	0.84694				
715	0.82832				
716	0.81036				
717	0.7901600000000001				
718	0.7704300000000001				
719	0.74929				
720	0.72956				
721	0.70855				
722	0.6887399999999999				
723	0.66865				
724	0.65049				
725	0.6317900000000001				
726	0.61373				
727	0.59576				
728	0.57891				
729	0.56068				
730	0.5462				
731	0.53244				
732	0.52005				
733	0.5084000000000001				
734	0.49739				
735	0.48688000000000003				
736	0.47701				
737	0.46847				
738	0.46187				
739	0.45439				
740	0.44868				
741	0.44442				
742	0.4385				
743	0.43506999999999996				
744	0.4318				
745	0.42957				
746	0.42816000000000004				
747	0.42711				
748	0.42715000000000003				
749	0.42792				
750	0.42916				
