Wavelength	Transmittance	hex_color	Manufacturer	Name	Filter Number
401	0.013640000000000001	#838383	Chroma	Unnamed	T660lpxr
402	0.01942				
403	0.03996				
404	0.042969999999999994				
405	0.01902				
406	0.00523				
407	0.00306				
408	0.0037099999999999998				
409	0.00827				
410	0.03143				
411	0.07622				
412	0.09134				
413	0.09712				
414	0.1961				
415	0.29626				
416	0.24544				
417	0.18247				
418	0.1303				
419	0.0548				
420	0.01965				
421	0.01045				
422	0.009260000000000001				
423	0.011319999999999998				
424	0.01463				
425	0.016730000000000002				
426	0.017079999999999998				
427	0.02				
428	0.035750000000000004				
429	0.07453				
430	0.15314				
431	0.24516				
432	0.27556				
433	0.29767				
434	0.25763				
435	0.13815				
436	0.05884				
437	0.03763				
438	0.04752				
439	0.08303				
440	0.11478999999999999				
441	0.09801				
442	0.06				
443	0.0548				
444	0.1085				
445	0.19171				
446	0.29395				
447	0.36453				
448	0.32736				
449	0.37252				
450	0.41987				
451	0.28021				
452	0.11741				
453	0.053529999999999994				
454	0.04650000000000001				
455	0.10678000000000001				
456	0.24194				
457	0.31056				
458	0.22346				
459	0.10087				
460	0.0584				
461	0.10085000000000001				
462	0.25204				
463	0.35284999999999994				
464	0.29776				
465	0.21838000000000002				
466	0.12272				
467	0.062439999999999996				
468	0.09187				
469	0.19005				
470	0.22616				
471	0.13475				
472	0.06346				
473	0.05636				
474	0.10678000000000001				
475	0.17626				
476	0.13301				
477	0.04626				
478	0.01641				
479	0.01073				
480	0.01109				
481	0.01709				
482	0.03025				
483	0.03562				
484	0.0236				
485	0.01118				
486	0.00668				
487	0.00618				
488	0.00857				
489	0.01838				
490	0.03354				
491	0.03148				
492	0.015309999999999999				
493	0.006889999999999999				
494	0.00484				
495	0.005430000000000001				
496	0.00962				
497	0.01902				
498	0.02226				
499	0.01248				
500	0.00445				
501	0.00215				
502	0.00149				
503	0.0013700000000000001				
504	0.00169				
505	0.00321				
506	0.008960000000000001				
507	0.016120000000000002				
508	0.012960000000000001				
509	0.00499				
510	0.00182				
511	0.0011200000000000001				
512	0.00079				
513	0.00083				
514	0.00101				
515	0.00161				
516	0.00345				
517	0.00795				
518	0.011890000000000001				
519	0.00935				
520	0.0047799999999999995				
521	0.00266				
522	0.00198				
523	0.0019500000000000001				
524	0.0023899999999999998				
525	0.00373				
526	0.00781				
527	0.01831				
528	0.028149999999999998				
529	0.02335				
530	0.012589999999999999				
531	0.0072299999999999994				
532	0.00526				
533	0.0046300000000000004				
534	0.00458				
535	0.004739999999999999				
536	0.00499				
537	0.00529				
538	0.00618				
539	0.00822				
540	0.01366				
541	0.02382				
542	0.02894				
543	0.02				
544	0.00943				
545	0.00458				
546	0.00292				
547	0.00223				
548	0.00203				
549	0.00222				
550	0.0028199999999999996				
551	0.00392				
552	0.00489				
553	0.00451				
554	0.0030399999999999997				
555	0.00169				
556	0.00104				
557	0.0006900000000000001				
558	0.00053				
559	0.00048				
560	0.00035000000000000005				
561	0.00042				
562	0.00048				
563	0.00066				
564	0.0008799999999999999				
565	0.0013800000000000002				
566	0.00215				
567	0.0033900000000000002				
568	0.00456				
569	0.00511				
570	0.00512				
571	0.0051400000000000005				
572	0.005889999999999999				
573	0.00804				
574	0.01083				
575	0.01129				
576	0.007850000000000001				
577	0.00415				
578	0.00208				
579	0.00117				
580	0.0008				
581	0.00065				
582	0.00053				
583	0.00045				
584	0.00046				
585	0.00047				
586	0.0007000000000000001				
587	0.00096				
588	0.00191				
589	0.00421				
590	0.00753				
591	0.008199999999999999				
592	0.00517				
593	0.00244				
594	0.00124				
595	0.00078				
596	0.0006				
597	0.00058				
598	0.0005600000000000001				
599	0.00049				
600	0.00065				
601	0.00091				
602	0.00169				
603	0.00308				
604	0.00685				
605	0.016479999999999998				
606	0.026080000000000002				
607	0.02088				
608	0.00912				
609	0.00407				
610	0.00264				
611	0.00196				
612	0.00157				
613	0.00154				
614	0.0015				
615	0.00169				
616	0.00192				
617	0.00232				
618	0.00321				
619	0.00497				
620	0.00851				
621	0.015700000000000002				
622	0.02691				
623	0.03453				
624	0.029670000000000002				
625	0.01939				
626	0.01233				
627	0.00895				
628	0.00734				
629	0.00658				
630	0.00638				
631	0.00661				
632	0.00731				
633	0.00848				
634	0.01042				
635	0.01329				
636	0.0174				
637	0.02281				
638	0.02916				
639	0.03418				
640	0.0365				
641	0.03598				
642	0.033929999999999995				
643	0.03157				
644	0.02989				
645	0.02923				
646	0.029830000000000002				
647	0.03167				
648	0.03501				
649	0.04042				
650	0.04839				
651	0.06017				
652	0.07768				
653	0.10363				
654	0.14129				
655	0.19415				
656	0.26739				
657	0.36179				
658	0.49517000000000005				
659	0.6696500000000001				
660	0.8518600000000001				
661	0.96512				
662	0.9930599999999999				
663	0.98856				
664	0.9857299999999999				
665	0.9887				
666	0.9921599999999999				
667	0.9928400000000001				
668	0.99236				
669	0.9913599999999999				
670	0.99288				
671	0.99417				
672	0.99658				
673	0.9982599999999999				
674	1.00052				
675	0.99966				
676	0.99832				
677	0.9982599999999999				
678	0.99887				
679	0.99971				
680	0.99958				
681	0.99949				
682	0.9978				
683	0.99614				
684	0.99611				
685	0.9953				
686	0.99553				
687	0.99493				
688	0.99682				
689	0.9961199999999999				
690	0.99646				
691	0.99673				
692	0.99823				
693	0.9957699999999999				
694	0.9962099999999999				
695	0.99438				
696	0.9933700000000001				
697	0.99285				
698	0.99198				
699	0.99155				
700	0.99127				
701	0.99274				
702	0.9926999999999999				
703	0.99433				
704	0.99528				
705	0.9957699999999999				
706	0.9965999999999999				
707	0.9949899999999999				
708	0.9940000000000001				
709	0.9929399999999999				
710	0.99139				
711	0.9904600000000001				
712	0.99139				
713	0.9924599999999999				
714	0.99249				
715	0.99544				
716	0.99645				
717	0.99619				
718	0.9989100000000001				
719	0.99783				
720	0.99846				
721	0.99615				
722	0.9947				
723	0.99056				
724	0.99087				
725	0.99036				
726	0.99056				
727	0.9895999999999999				
728	0.99286				
729	0.9935299999999999				
730	0.99684				
731	0.9970399999999999				
732	0.99586				
733	0.99959				
734	0.99785				
735	0.99678				
736	0.99729				
737	0.99521				
738	0.9953799999999999				
739	0.99358				
740	0.99356				
741	0.99181				
742	0.9902200000000001				
743	0.99045				
744	0.9899800000000001				
745	0.99265				
746	0.99458				
747	0.9971800000000001				
748	0.99764				
749	0.99837				
750	0.99905				
751	0.99774				
752	0.99562				
753	0.99409				
754	0.9922				
755	0.9900100000000001				
756	0.9887699999999999				
757	0.98724				
758	0.9865999999999999				
759	0.9872				
760	0.98747				
761	0.9884000000000001				
762	0.9902200000000001				
763	0.99157				
764	0.99241				
765	0.9926				
766	0.9932500000000001				
767	0.9934499999999999				
768	0.99634				
769	0.9948600000000001				
770	0.99361				
771	0.9933799999999999				
772	0.99319				
773	0.98973				
774	0.98699				
775	0.98811				
776	0.98747				
777	0.9900100000000001				
778	0.9918899999999999				
779	0.9929000000000001				
780	0.99226				
781	0.9953799999999999				
782	0.99264				
783	0.9952500000000001				
784	0.99477				
785	0.9945499999999999				
786	0.9942				
787	0.9931699999999999				
788	0.99153				
789	0.98969				
790	0.98643				
791	0.9851399999999999				
792	0.98422				
793	0.98236				
794	0.98214				
795	0.9809				
796	0.98057				
797	0.9841500000000001				
798	0.9839199999999999				
799	0.9851800000000001				
800	0.98801				
801	0.98964				
802	0.99152				
803	0.9908899999999999				
804	0.9901800000000001				
805	0.99251				
806	0.99128				
807	0.9887699999999999				
808	0.9891800000000001				
809	0.9880800000000001				
810	0.9860500000000001				
811	0.98535				
812	0.98515				
813	0.98688				
814	0.98748				
815	0.9875499999999999				
816	0.98785				
817	0.9882				
818	0.98965				
819	0.99004				
820	0.99098				
821	0.98827				
822	0.9883799999999999				
823	0.98784				
824	0.98634				
825	0.9841200000000001				
826	0.9826699999999999				
827	0.98115				
828	0.98015				
829	0.9786100000000001				
830	0.97807				
831	0.97759				
832	0.9769				
833	0.9756999999999999				
834	0.9773099999999999				
835	0.9784				
836	0.9798300000000001				
837	0.98139				
838	0.98291				
839	0.9828600000000001				
840	0.98291				
841	0.9833				
842	0.98194				
843	0.98198				
844	0.9819100000000001				
845	0.97962				
846	0.97709				
847	0.97641				
848	0.9767199999999999				
849	0.97551				
850	0.9721599999999999				
851	0.9745999999999999				
852	0.9765600000000001				
853	0.9780599999999999				
854	0.98044				
855	0.98163				
856	0.9855800000000001				
857	0.98661				
858	0.98977				
859	0.98859				
860	0.98917				
861	0.98804				
862	0.987				
863	0.98532				
864	0.9835699999999999				
865	0.9795999999999999				
866	0.97638				
867	0.9745199999999999				
868	0.97283				
869	0.97045				
870	0.96904				
871	0.97115				
872	0.97101				
873	0.9721899999999999				
874	0.97313				
875	0.97571				
876	0.97944				
877	0.98104				
878	0.9840800000000001				
879	0.98556				
880	0.98607				
881	0.9847100000000001				
882	0.98344				
883	0.98039				
884	0.97673				
885	0.97381				
886	0.97064				
887	0.96816				
888	0.96658				
889	0.9659300000000001				
890	0.96667				
891	0.96919				
892	0.97275				
893	0.97775				
894	0.9834900000000001				
895	0.9852200000000001				
896	0.98235				
897	0.97443				
898	0.95856				
899	0.93216				
900	0.89649				
901	0.0				
