Wavelength	Transmittance	hex_color	Manufacturer	Name	Filter Number
380	0.15116	#838383	Chroma	Unnamed	ZT568rdc
381	0.1025				
382	0.03846				
383	0.02563				
384	0.03512				
385	0.022879999999999998				
386	0.0022500000000000003				
387	0.00062				
388	0.0				
389	0.0				
390	0.0				
391	0.0				
392	0.0				
393	0.0				
394	0.0				
395	0.00017999999999999998				
396	0.0				
397	0.0				
398	0.0				
399	0.0				
400	0.00068				
401	0.009389999999999999				
402	0.04376				
403	0.09287000000000001				
404	0.12083				
405	0.12648				
406	0.11295				
407	0.13406				
408	0.18794				
409	0.21907				
410	0.19827000000000003				
411	0.11853				
412	0.07458999999999999				
413	0.08818				
414	0.1588				
415	0.22625				
416	0.19631				
417	0.12308999999999999				
418	0.12932				
419	0.21050999999999997				
420	0.26003				
421	0.19859000000000002				
422	0.12252				
423	0.14288				
424	0.20175				
425	0.17632				
426	0.08615				
427	0.02995				
428	0.02173				
429	0.02895				
430	0.03701				
431	0.03015				
432	0.014410000000000001				
433	0.00615				
434	0.00432				
435	0.0047799999999999995				
436	0.00731				
437	0.00875				
438	0.006670000000000001				
439	0.00313				
440	0.00151				
441	0.0011				
442	0.00131				
443	0.00179				
444	0.00248				
445	0.0025900000000000003				
446	0.0017699999999999999				
447	0.001				
448	0.00046				
449	0.00042				
450	0.0006				
451	0.0007599999999999999				
452	0.00099				
453	0.00123				
454	0.00077				
455	0.00058				
456	0.00028000000000000003				
457	0.00013				
458	0.0003				
459	0.00025				
460	0.00054				
461	0.00061				
462	0.0005600000000000001				
463	0.00055				
464	6e-05				
465	0.00021				
466	0.00024				
467	0.00012				
468	0.00023				
469	0.00054				
470	0.00064				
471	0.00066				
472	0.0005				
473	0.0005				
474	0.00032				
475	0.0002				
476	0.00028000000000000003				
477	0.00026				
478	0.00046				
479	0.00065				
480	0.00074				
481	0.00075				
482	0.00066				
483	0.0004				
484	0.00039				
485	0.00032				
486	0.00048				
487	0.0005600000000000001				
488	0.00058				
489	0.0009				
490	0.00124				
491	0.00132				
492	0.0011899999999999999				
493	0.00091				
494	0.00079				
495	0.0005899999999999999				
496	0.00062				
497	0.0007199999999999999				
498	0.00077				
499	0.00121				
500	0.0016200000000000001				
501	0.00243				
502	0.00315				
503	0.0034100000000000003				
504	0.00332				
505	0.00291				
506	0.00246				
507	0.00246				
508	0.00246				
509	0.00291				
510	0.0035299999999999997				
511	0.00481				
512	0.00651				
513	0.00823				
514	0.00907				
515	0.00867				
516	0.00746				
517	0.00621				
518	0.00534				
519	0.0049499999999999995				
520	0.00508				
521	0.00555				
522	0.00683				
523	0.00906				
524	0.01229				
525	0.01615				
526	0.01847				
527	0.01783				
528	0.01455				
529	0.01106				
530	0.008239999999999999				
531	0.00685				
532	0.00619				
533	0.00637				
534	0.00722				
535	0.009130000000000001				
536	0.01353				
537	0.0213				
538	0.028149999999999998				
539	0.02767				
540	0.01899				
541	0.010209999999999999				
542	0.00569				
543	0.0034999999999999996				
544	0.00243				
545	0.00187				
546	0.0015199999999999999				
547	0.00133				
548	0.0011799999999999998				
549	0.00116				
550	0.0011799999999999998				
551	0.00124				
552	0.00133				
553	0.00145				
554	0.0017299999999999998				
555	0.0020399999999999997				
556	0.00228				
557	0.00267				
558	0.00317				
559	0.0038				
560	0.00439				
561	0.00502				
562	0.00582				
563	0.00695				
564	0.00817				
565	0.00981				
566	0.01196				
567	0.015229999999999999				
568	0.01983				
569	0.02683				
570	0.037599999999999995				
571	0.05468				
572	0.0819				
573	0.12178000000000001				
574	0.18576				
575	0.26812				
576	0.36131				
577	0.45198				
578	0.54278				
579	0.6589400000000001				
580	0.78974				
581	0.899				
582	0.94207				
583	0.9489				
584	0.9514400000000001				
585	0.9565699999999999				
586	0.96276				
587	0.96672				
588	0.96881				
589	0.9708				
590	0.97165				
591	0.97				
592	0.96905				
593	0.96765				
594	0.9660500000000001				
595	0.9656600000000001				
596	0.9666800000000001				
597	0.9682599999999999				
598	0.96907				
599	0.96964				
600	0.9686				
601	0.96738				
602	0.96638				
603	0.9657800000000001				
604	0.96604				
605	0.9716899999999999				
606	0.9738500000000001				
607	0.97792				
608	0.98176				
609	0.98374				
610	0.98211				
611	0.97938				
612	0.97758				
613	0.97625				
614	0.97446				
615	0.97316				
616	0.9721				
617	0.97329				
618	0.9744799999999999				
619	0.97752				
620	0.9787399999999999				
621	0.9806				
622	0.98234				
623	0.98334				
624	0.9813200000000001				
625	0.97935				
626	0.9791599999999999				
627	0.9784099999999999				
628	0.97997				
629	0.98057				
630	0.9823000000000001				
631	0.9829399999999999				
632	0.9848				
633	0.98555				
634	0.98629				
635	0.98575				
636	0.9844499999999999				
637	0.9827899999999999				
638	0.98236				
639	0.98275				
640	0.9836100000000001				
641	0.98387				
642	0.9847499999999999				
643	0.98385				
644	0.9853700000000001				
645	0.98663				
646	0.9859699999999999				
647	0.98551				
648	0.98457				
649	0.9839600000000001				
650	0.9832299999999999				
651	0.98009				
652	0.97711				
653	0.97845				
654	0.97938				
655	0.9795900000000001				
656	0.9815900000000001				
657	0.9825499999999999				
658	0.98434				
659	0.9863299999999999				
660	0.98773				
661	0.98815				
662	0.98827				
663	0.98734				
664	0.98458				
665	0.98422				
666	0.9821599999999999				
667	0.98055				
668	0.9798399999999999				
669	0.9792000000000001				
670	0.9792400000000001				
671	0.97938				
672	0.98096				
673	0.98252				
674	0.98333				
675	0.9851399999999999				
676	0.98616				
677	0.9876900000000001				
678	0.9875499999999999				
679	0.9875700000000001				
680	0.9863				
681	0.98524				
682	0.98417				
683	0.98473				
684	0.98193				
685	0.9831399999999999				
686	0.98342				
687	0.9826600000000001				
688	0.98414				
689	0.986				
690	0.98694				
691	0.98694				
692	0.98751				
693	0.9879399999999999				
694	0.9874299999999999				
695	0.9872700000000001				
696	0.98649				
697	0.98616				
698	0.9856				
699	0.98492				
700	0.9846299999999999				
701	0.9847899999999999				
702	0.98506				
703	0.98519				
704	0.9854600000000001				
705	0.98607				
706	0.98663				
707	0.98702				
708	0.98739				
709	0.9876699999999999				
710	0.9878				
711	0.98747				
712	0.9872799999999999				
713	0.9869199999999999				
714	0.9874299999999999				
715	0.98712				
716	0.9860800000000001				
717	0.98508				
718	0.9841500000000001				
719	0.98504				
720	0.98509				
721	0.9853700000000001				
722	0.9860899999999999				
723	0.9881300000000001				
724	0.9875700000000001				
725	0.98655				
726	0.98785				
727	0.98761				
728	0.98783				
729	0.9869100000000001				
730	0.98764				
731	0.98759				
732	0.9869				
733	0.98698				
734	0.9867				
735	0.9869100000000001				
736	0.9859				
737	0.98566				
738	0.9855800000000001				
739	0.98489				
740	0.98378				
741	0.98421				
742	0.98501				
743	0.98493				
744	0.9843500000000001				
745	0.9855800000000001				
746	0.98551				
747	0.9859300000000001				
748	0.98713				
749	0.98641				
750	0.98602				
751	0.98548				
752	0.9851099999999999				
753	0.98441				
754	0.98422				
755	0.9848600000000001				
756	0.9846299999999999				
757	0.98515				
758	0.98497				
759	0.98572				
760	0.9855800000000001				
761	0.9865600000000001				
762	0.9869				
763	0.9870699999999999				
764	0.987				
765	0.98734				
766	0.98764				
767	0.9871099999999999				
768	0.9868600000000001				
769	0.98627				
770	0.9848600000000001				
771	0.9840099999999999				
772	0.98248				
773	0.98307				
774	0.98312				
775	0.9834499999999999				
776	0.9830500000000001				
777	0.98251				
778	0.98214				
779	0.9829300000000001				
780	0.98335				
781	0.9851399999999999				
782	0.9848300000000001				
783	0.98619				
784	0.98634				
785	0.9863200000000001				
786	0.98587				
787	0.98738				
788	0.987				
789	0.98694				
790	0.98733				
791	0.9872299999999999				
792	0.9868399999999999				
793	0.98772				
794	0.98831				
795	0.9881300000000001				
796	0.98807				
797	0.98665				
798	0.9859399999999999				
799	0.98623				
800	0.98555				
801	0.98503				
802	0.98665				
803	0.98702				
804	0.98803				
805	0.98775				
806	0.9874299999999999				
807	0.9867900000000001				
808	0.9877800000000001				
809	0.9871899999999999				
810	0.9848				
811	0.98453				
812	0.98532				
813	0.9827400000000001				
814	0.98198				
815	0.9802500000000001				
816	0.98088				
817	0.9814400000000001				
818	0.9806199999999999				
819	0.9799599999999999				
820	0.97967				
821	0.98114				
822	0.98226				
823	0.98461				
824	0.9859699999999999				
825	0.9856999999999999				
826	0.98398				
827	0.98614				
828	0.98626				
829	0.98622				
830	0.98669				
831	0.9864700000000001				
832	0.9871				
833	0.9851800000000001				
834	0.98461				
835	0.98134				
836	0.9821899999999999				
837	0.9828				
838	0.98116				
839	0.98099				
840	0.97708				
841	0.9778100000000001				
842	0.97803				
843	0.97426				
844	0.9733700000000001				
845	0.97391				
846	0.97249				
847	0.9695999999999999				
848	0.96649				
849	0.96332				
850	0.95954				
