Wavelength	Transmittance	hex_color	Manufacturer	Name	Filter Number
300	0.0	#838383	Chroma	Unnamed	AT435lp
301	0.0				
302	0.0				
303	0.0				
304	0.0				
305	0.0				
306	0.0				
307	0.0				
308	0.0				
309	0.0				
310	0.0				
311	0.0				
312	0.0				
313	0.0				
314	0.0				
315	0.0				
316	0.0				
317	0.0				
318	0.0				
319	0.0				
320	0.0				
321	0.0				
322	0.0				
323	0.0				
324	0.0				
325	0.0				
326	0.0				
327	0.0				
328	0.0				
329	0.0				
330	0.0				
331	0.0				
332	0.0				
333	0.0				
334	0.0				
335	0.0				
336	0.0				
337	0.0				
338	0.0				
339	0.0				
340	0.0				
341	0.0				
342	0.0				
343	0.0				
344	0.0				
345	0.0				
346	0.0				
347	0.0				
348	0.0				
349	0.0				
350	0.0				
351	0.0				
352	0.0				
353	0.0				
354	0.0				
355	0.0				
356	0.0				
357	0.0				
358	0.0				
359	0.0				
360	0.0				
361	0.0				
362	0.0				
363	0.0				
364	0.0				
365	0.0				
366	0.0				
367	0.0				
368	0.0				
369	0.0				
370	0.0				
371	0.0				
372	0.0				
373	0.0				
374	0.0				
375	0.0				
376	0.0				
377	0.0				
378	0.0				
379	0.0				
380	0.0				
381	0.0				
382	0.0				
383	0.0				
384	0.0				
385	0.0				
386	0.0				
387	0.0				
388	0.0				
389	0.0				
390	0.0				
391	0.0				
392	0.0				
393	0.0				
394	0.0				
395	0.0				
396	0.0				
397	0.0				
398	0.0				
399	0.0				
400	0.0				
401	0.0				
402	0.0				
403	0.0				
404	0.0				
405	0.0				
406	0.0				
407	0.0				
408	0.0				
409	0.0				
410	0.0				
411	0.0				
412	0.0				
413	0.0				
414	0.0				
415	0.0				
416	0.0				
417	0.0				
418	0.0				
419	0.0				
420	0.0				
421	0.0				
422	0.0				
423	0.0				
424	0.0				
425	0.0				
426	1e-05				
427	3e-05				
428	0.0001				
429	0.00033				
430	0.0013				
431	0.005829999999999999				
432	0.03298				
433	0.19498000000000001				
434	0.64729				
435	0.92423				
436	0.94394				
437	0.94915				
438	0.9486				
439	0.9451				
440	0.94525				
441	0.9488				
442	0.95122				
443	0.9514400000000001				
444	0.95051				
445	0.95024				
446	0.95152				
447	0.95297				
448	0.9543200000000001				
449	0.9535899999999999				
450	0.95256				
451	0.9507599999999999				
452	0.95024				
453	0.95111				
454	0.9523699999999999				
455	0.95321				
456	0.9535399999999999				
457	0.9531499999999999				
458	0.95175				
459	0.9506600000000001				
460	0.94978				
461	0.9493600000000001				
462	0.9504300000000001				
463	0.95166				
464	0.9530299999999999				
465	0.95418				
466	0.95458				
467	0.9548300000000001				
468	0.95474				
469	0.9547199999999999				
470	0.9545399999999999				
471	0.95434				
472	0.95453				
473	0.9551900000000001				
474	0.9556999999999999				
475	0.9557599999999999				
476	0.95552				
477	0.9553100000000001				
478	0.95461				
479	0.95343				
480	0.9531000000000001				
481	0.95277				
482	0.95312				
483	0.95395				
484	0.9545999999999999				
485	0.9554300000000001				
486	0.9555899999999999				
487	0.95499				
488	0.9531399999999999				
489	0.9504				
490	0.9468300000000001				
491	0.9427				
492	0.9383				
493	0.93477				
494	0.932				
495	0.9303199999999999				
496	0.93				
497	0.93117				
498	0.9333				
499	0.93661				
500	0.9397199999999999				
501	0.94354				
502	0.9464199999999999				
503	0.9492100000000001				
504	0.95085				
505	0.95222				
506	0.95253				
507	0.95207				
508	0.9515300000000001				
509	0.9511499999999999				
510	0.9510500000000001				
511	0.95088				
512	0.95166				
513	0.95249				
514	0.9533499999999999				
515	0.95463				
516	0.9558599999999999				
517	0.95662				
518	0.95658				
519	0.9566				
520	0.9556				
521	0.9539799999999999				
522	0.9527				
523	0.9508199999999999				
524	0.9488				
525	0.94765				
526	0.94651				
527	0.94616				
528	0.94633				
529	0.9474899999999999				
530	0.94918				
531	0.9506399999999999				
532	0.9527599999999999				
533	0.9538				
534	0.95548				
535	0.95664				
536	0.95637				
537	0.9554300000000001				
538	0.9538				
539	0.95176				
540	0.9492100000000001				
541	0.94632				
542	0.9434999999999999				
543	0.9405899999999999				
544	0.9387399999999999				
545	0.9366599999999999				
546	0.93556				
547	0.9355100000000001				
548	0.93592				
549	0.9376000000000001				
550	0.93865				
551	0.94084				
552	0.9437300000000001				
553	0.9459099999999999				
554	0.9484999999999999				
555	0.95025				
556	0.9518000000000001				
557	0.95289				
558	0.95324				
559	0.9530299999999999				
560	0.95217				
561	0.9511				
562	0.94999				
563	0.94837				
564	0.9466				
565	0.9455				
566	0.9445600000000001				
567	0.94364				
568	0.94312				
569	0.94326				
570	0.9437399999999999				
571	0.94438				
572	0.94545				
573	0.9464199999999999				
574	0.9475100000000001				
575	0.94817				
576	0.94952				
577	0.94965				
578	0.9499599999999999				
579	0.94973				
580	0.9488800000000001				
581	0.94833				
582	0.9471299999999999				
583	0.94616				
584	0.9444499999999999				
585	0.94318				
586	0.94157				
587	0.94				
588	0.93934				
589	0.93825				
590	0.93792				
591	0.9376399999999999				
592	0.93744				
593	0.9379000000000001				
594	0.93838				
595	0.9389700000000001				
596	0.9400499999999999				
597	0.94092				
598	0.9414100000000001				
599	0.9421299999999999				
600	0.9427500000000001				
601	0.9430299999999999				
602	0.9430700000000001				
603	0.94316				
604	0.94274				
605	0.9426000000000001				
606	0.94162				
607	0.94087				
608	0.93998				
609	0.9392499999999999				
610	0.93863				
611	0.93813				
612	0.93744				
613	0.9372				
614	0.93726				
615	0.93718				
616	0.93765				
617	0.93833				
618	0.93938				
619	0.9403900000000001				
620	0.94174				
621	0.94262				
622	0.94389				
623	0.94489				
624	0.94585				
625	0.9464				
626	0.9468899999999999				
627	0.9471599999999999				
628	0.9472400000000001				
629	0.94679				
630	0.9460299999999999				
631	0.94501				
632	0.9440999999999999				
633	0.9426399999999999				
634	0.94139				
635	0.94023				
636	0.93867				
637	0.93754				
638	0.93599				
639	0.93502				
640	0.9339799999999999				
641	0.93351				
642	0.93285				
643	0.9326099999999999				
644	0.9328400000000001				
645	0.93313				
646	0.9338				
647	0.9342400000000001				
648	0.9351600000000001				
649	0.9362900000000001				
650	0.93718				
651	0.93783				
652	0.9385800000000001				
653	0.93938				
654	0.9399				
655	0.94013				
656	0.94009				
657	0.94021				
658	0.9397				
659	0.93907				
660	0.93821				
661	0.93715				
662	0.9361799999999999				
663	0.93489				
664	0.9331699999999999				
665	0.93169				
666	0.9303100000000001				
667	0.92907				
668	0.9277599999999999				
669	0.92673				
670	0.9254399999999999				
671	0.92487				
672	0.9245				
673	0.92408				
674	0.92381				
675	0.92388				
676	0.9245300000000001				
677	0.92482				
678	0.9255599999999999				
679	0.92648				
680	0.9278400000000001				
681	0.92864				
682	0.92972				
683	0.9307099999999999				
684	0.9319299999999999				
685	0.93282				
686	0.93357				
687	0.9343899999999999				
688	0.9349200000000001				
689	0.9351600000000001				
690	0.93502				
691	0.9346800000000001				
692	0.93432				
693	0.93377				
694	0.9328400000000001				
695	0.9317300000000001				
696	0.93059				
697	0.92932				
698	0.9279900000000001				
699	0.92663				
700	0.9250400000000001				
701	0.92375				
702	0.92238				
703	0.92128				
704	0.9196599999999999				
705	0.9189499999999999				
706	0.9180200000000001				
707	0.91762				
708	0.9172100000000001				
709	0.9167700000000001				
710	0.91659				
711	0.91668				
712	0.91712				
713	0.91767				
714	0.91786				
715	0.91833				
716	0.9194199999999999				
717	0.92061				
718	0.9214100000000001				
719	0.9216599999999999				
720	0.92255				
721	0.92315				
722	0.92401				
723	0.9243300000000001				
724	0.92456				
725	0.92495				
726	0.9253100000000001				
727	0.92475				
728	0.92414				
729	0.92431				
730	0.9233899999999999				
731	0.92318				
732	0.9223300000000001				
733	0.9216				
734	0.9202899999999999				
735	0.91932				
736	0.9182899999999999				
737	0.9173300000000001				
738	0.91688				
739	0.9157				
740	0.9147799999999999				
741	0.91464				
742	0.91378				
743	0.9134300000000001				
744	0.91342				
745	0.91349				
746	0.91366				
747	0.91389				
748	0.91419				
749	0.91488				
750	0.9160699999999999				
751	0.9174800000000001				
752	0.9181100000000001				
753	0.91959				
754	0.92096				
755	0.92205				
756	0.9234300000000001				
757	0.92459				
758	0.92577				
759	0.92702				
760	0.92872				
761	0.9293				
762	0.93038				
763	0.93108				
764	0.93206				
765	0.93196				
766	0.93243				
767	0.93279				
768	0.93216				
769	0.93174				
770	0.93194				
771	0.93048				
772	0.92955				
773	0.92795				
774	0.92676				
775	0.9254600000000001				
776	0.92381				
777	0.92181				
778	0.9197799999999999				
779	0.91876				
780	0.9165300000000001				
781	0.9155200000000001				
782	0.91431				
783	0.91259				
784	0.9104099999999999				
785	0.90987				
786	0.90877				
787	0.9084399999999999				
788	0.9070699999999999				
789	0.90679				
790	0.90645				
791	0.90697				
792	0.90681				
793	0.90755				
794	0.9078400000000001				
795	0.90901				
796	0.91022				
797	0.91107				
798	0.9131699999999999				
799	0.9145699999999999				
800	0.91524				
801	0.91692				
802	0.91876				
803	0.92059				
804	0.92254				
805	0.92438				
806	0.9262				
807	0.92792				
808	0.9296599999999999				
809	0.93125				
810	0.93262				
811	0.93388				
812	0.93506				
813	0.93596				
814	0.93657				
815	0.93702				
816	0.93738				
817	0.93742				
818	0.93716				
819	0.93672				
820	0.93619				
821	0.93527				
822	0.93432				
823	0.93316				
824	0.93182				
825	0.93035				
826	0.9288500000000001				
827	0.92714				
828	0.9255				
829	0.92363				
830	0.9219499999999999				
831	0.9201600000000001				
832	0.91849				
833	0.9168000000000001				
834	0.9152				
835	0.9137900000000001				
836	0.9124599999999999				
837	0.91108				
838	0.91009				
839	0.9092199999999999				
840	0.90838				
841	0.90779				
842	0.90738				
843	0.9072199999999999				
844	0.90727				
845	0.90738				
846	0.90765				
847	0.90823				
848	0.9089				
849	0.90985				
850	0.9108700000000001				
851	0.9119799999999999				
852	0.9133499999999999				
853	0.9146899999999999				
854	0.9161400000000001				
855	0.91771				
856	0.91929				
857	0.92096				
858	0.92266				
859	0.9242100000000001				
860	0.92582				
861	0.9273399999999999				
862	0.9288200000000001				
863	0.9302800000000001				
864	0.93152				
865	0.93268				
866	0.9337000000000001				
867	0.9346099999999999				
868	0.93526				
869	0.9358299999999999				
870	0.9361700000000001				
871	0.93631				
872	0.93633				
873	0.93607				
874	0.9357599999999999				
875	0.9351600000000001				
876	0.93443				
877	0.93354				
878	0.93247				
879	0.93119				
880	0.92999				
881	0.9285899999999999				
882	0.92691				
883	0.9253				
884	0.92354				
885	0.92193				
886	0.92008				
887	0.91826				
888	0.91652				
889	0.9146500000000001				
890	0.91297				
891	0.9113800000000001				
892	0.90974				
893	0.90822				
894	0.90687				
895	0.90558				
896	0.9043899999999999				
897	0.90342				
898	0.9026000000000001				
899	0.90178				
900	0.9013				
901	0.9008499999999999				
902	0.90056				
903	0.90045				
904	0.90057				
905	0.90082				
906	0.90122				
907	0.90173				
908	0.90238				
909	0.90325				
910	0.90414				
911	0.9052800000000001				
912	0.9065099999999999				
913	0.90771				
914	0.90917				
915	0.9105500000000001				
916	0.91206				
917	0.91357				
918	0.91522				
919	0.91687				
920	0.91842				
921	0.92014				
922	0.92168				
923	0.9232299999999999				
924	0.9247799999999999				
925	0.9261				
926	0.92744				
927	0.92861				
928	0.92973				
929	0.9308				
930	0.9316500000000001				
931	0.9323999999999999				
932	0.93291				
933	0.9334600000000001				
934	0.93365				
935	0.93377				
936	0.9337099999999999				
937	0.9333899999999999				
938	0.9331100000000001				
939	0.9326399999999999				
940	0.9317				
941	0.93094				
942	0.9299299999999999				
943	0.9289499999999999				
944	0.9275199999999999				
945	0.9261				
946	0.92479				
947	0.92326				
948	0.92132				
949	0.9198099999999999				
950	0.9181199999999999				
951	0.91605				
952	0.91417				
953	0.91267				
954	0.91066				
955	0.90869				
956	0.90724				
957	0.90526				
958	0.9036				
959	0.9020699999999999				
960	0.90021				
961	0.89902				
962	0.89741				
963	0.89608				
964	0.89507				
965	0.89376				
966	0.89301				
967	0.89202				
968	0.89144				
969	0.89077				
970	0.89035				
971	0.8901699999999999				
972	0.88991				
973	0.89				
974	0.89				
975	0.89058				
976	0.8906100000000001				
977	0.8913599999999999				
978	0.8918300000000001				
979	0.89288				
980	0.89357				
981	0.89468				
982	0.89562				
983	0.89696				
984	0.8983199999999999				
985	0.8996200000000001				
986	0.90104				
987	0.90264				
988	0.9042100000000001				
989	0.90586				
990	0.9074500000000001				
991	0.9090900000000001				
992	0.9108799999999999				
993	0.91264				
994	0.91425				
995	0.91593				
996	0.91753				
997	0.91916				
998	0.9207899999999999				
999	0.9222100000000001				
1000	0.9235800000000001				
1001	0.92495				
1002	0.9262900000000001				
1003	0.9273399999999999				
1004	0.92836				
1005	0.92931				
1006	0.9301900000000001				
1007	0.93086				
1008	0.93143				
1009	0.93192				
1010	0.93228				
1011	0.93242				
1012	0.9324899999999999				
1013	0.93233				
1014	0.93214				
1015	0.9317				
1016	0.9312699999999999				
1017	0.93065				
1018	0.92998				
1019	0.92896				
1020	0.9280700000000001				
1021	0.9270099999999999				
1022	0.92582				
1023	0.92458				
1024	0.92338				
1025	0.9218899999999999				
1026	0.9204300000000001				
1027	0.91901				
1028	0.91727				
1029	0.91567				
1030	0.9140999999999999				
1031	0.9123699999999999				
1032	0.91084				
1033	0.90903				
1034	0.9074				
1035	0.9056000000000001				
1036	0.904				
1037	0.90259				
1038	0.90095				
1039	0.89952				
1040	0.89807				
1041	0.89666				
1042	0.8955299999999999				
1043	0.89412				
1044	0.8929				
1045	0.8918300000000001				
1046	0.89078				
1047	0.88992				
1048	0.88902				
1049	0.88836				
1050	0.88762				
1051	0.8870600000000001				
1052	0.8864799999999999				
1053	0.88619				
1054	0.8858				
1055	0.8858799999999999				
1056	0.88581				
1057	0.88577				
1058	0.88601				
1059	0.88637				
1060	0.88664				
1061	0.8873000000000001				
1062	0.88778				
1063	0.8885200000000001				
1064	0.88922				
1065	0.8901699999999999				
1066	0.89087				
1067	0.8919400000000001				
1068	0.893				
1069	0.8939199999999999				
1070	0.8951				
1071	0.89603				
1072	0.8970199999999999				
1073	0.89833				
1074	0.89979				
1075	0.90125				
1076	0.90262				
1077	0.90417				
1078	0.9055500000000001				
1079	0.90656				
1080	0.9077500000000001				
1081	0.9092				
1082	0.91066				
1083	0.9119799999999999				
1084	0.91342				
1085	0.91458				
1086	0.91553				
1087	0.91632				
1088	0.91774				
1089	0.91899				
1090	0.92007				
1091	0.9206799999999999				
1092	0.92129				
1093	0.92215				
1094	0.9229999999999999				
1095	0.92368				
1096	0.9242				
1097	0.92431				
1098	0.92503				
1099	0.9253199999999999				
1100	0.92523				
