Wavelength	Transmittance	hex_color	Manufacturer	Name	Filter Number
301	0.0	#838383	Chroma	Unnamed	et655lptrf0
302	0.0				
303	0.0				
304	0.0				
305	0.0				
306	0.0				
307	0.0				
308	0.0				
309	0.0				
310	0.0				
311	0.0				
312	0.0				
313	0.0				
314	0.0				
315	0.0				
316	0.0				
317	0.0				
318	0.0				
319	0.0				
320	0.0				
321	0.0				
322	0.0				
323	0.0				
324	0.0				
325	0.0				
326	0.0				
327	0.0				
328	0.0				
329	0.0				
330	0.0				
331	0.0				
332	0.0				
333	0.0				
334	0.0				
335	0.0				
336	0.0				
337	0.0				
338	0.0				
339	0.0				
340	0.0				
341	0.0				
342	0.0				
343	0.0				
344	0.0				
345	0.0				
346	0.0				
347	0.0				
348	0.0				
349	0.0				
350	0.0				
351	0.0				
352	0.0				
353	0.0				
354	0.0				
355	0.0				
356	0.0				
357	0.0				
358	0.0				
359	0.0				
360	0.0				
361	0.0				
362	0.0				
363	0.0				
364	0.0				
365	0.0				
366	0.0				
367	0.0				
368	0.0				
369	0.0				
370	0.0				
371	0.0				
372	0.0				
373	0.0				
374	0.0				
375	0.0				
376	0.0				
377	0.0				
378	0.0				
379	0.0				
380	0.0				
381	0.0				
382	0.0				
383	0.0				
384	0.0				
385	0.0				
386	0.0				
387	0.0				
388	0.0				
389	0.0				
390	0.0				
391	0.0				
392	0.0				
393	0.0				
394	0.0				
395	0.0				
396	0.0				
397	0.0				
398	0.0				
399	0.0				
400	0.0				
401	0.0				
402	0.0				
403	0.0				
404	0.0				
405	0.0				
406	0.0				
407	0.0				
408	0.0				
409	0.0				
410	0.0				
411	0.0				
412	0.0				
413	0.0				
414	0.0				
415	0.0				
416	0.0				
417	0.0				
418	0.0				
419	0.0				
420	0.0				
421	0.0				
422	0.0				
423	0.0				
424	0.0				
425	0.0				
426	0.0				
427	0.0				
428	0.0				
429	0.0				
430	0.0				
431	0.0				
432	0.0				
433	0.0				
434	0.0				
435	0.0				
436	0.0				
437	0.0				
438	0.0				
439	0.0				
440	0.0				
441	0.0				
442	0.0				
443	0.0				
444	0.0				
445	0.0				
446	0.0				
447	0.0				
448	0.0				
449	0.0				
450	0.0				
451	0.0				
452	0.0				
453	0.0				
454	0.0				
455	0.0				
456	0.0				
457	0.0				
458	0.0				
459	0.0				
460	0.0				
461	0.0				
462	0.0				
463	0.0				
464	0.0				
465	0.0				
466	0.0				
467	0.0				
468	0.0				
469	0.0				
470	0.0				
471	0.0				
472	0.0				
473	0.0				
474	0.0				
475	0.0				
476	0.0				
477	0.0				
478	0.0				
479	0.0				
480	0.0				
481	0.0				
482	0.0				
483	0.0				
484	0.0				
485	0.0				
486	0.0				
487	0.0				
488	0.0				
489	0.0				
490	0.0				
491	0.0				
492	0.0				
493	0.0				
494	0.0				
495	0.0				
496	0.0				
497	0.0				
498	0.0				
499	0.0				
500	0.0				
501	0.0				
502	0.0				
503	0.0				
504	0.0				
505	0.0				
506	0.0				
507	0.0				
508	0.0				
509	0.0				
510	0.0				
511	0.0				
512	0.0				
513	0.0				
514	0.0				
515	0.0				
516	0.0				
517	0.0				
518	0.0				
519	0.0				
520	0.0				
521	0.0				
522	0.0				
523	0.0				
524	0.0				
525	0.0				
526	0.0				
527	0.0				
528	0.0				
529	0.0				
530	0.0				
531	0.0				
532	0.0				
533	0.0				
534	0.0				
535	0.0				
536	0.0				
537	0.0				
538	0.0				
539	0.0				
540	0.0				
541	0.0				
542	0.0				
543	0.0				
544	0.0				
545	0.0				
546	0.0				
547	0.0				
548	0.0				
549	0.0				
550	0.0				
551	0.0				
552	0.0				
553	0.0				
554	0.0				
555	0.0				
556	0.0				
557	0.0				
558	0.0				
559	0.0				
560	0.0				
561	0.0				
562	0.0				
563	0.0				
564	0.0				
565	0.0				
566	0.0				
567	0.0				
568	0.0				
569	0.0				
570	0.0				
571	0.0				
572	0.0				
573	0.0				
574	0.0				
575	0.0				
576	0.0				
577	0.0				
578	0.0				
579	0.0				
580	0.0				
581	0.0				
582	0.0				
583	0.0				
584	0.0				
585	0.0				
586	0.0				
587	0.0				
588	0.0				
589	0.0				
590	0.0				
591	0.0				
592	0.0				
593	0.0				
594	0.0				
595	0.0				
596	0.0				
597	0.0				
598	0.0				
599	0.0				
600	0.0				
601	0.0				
602	0.0				
603	0.0				
604	0.0				
605	0.0				
606	0.0				
607	0.0				
608	0.0				
609	0.0				
610	0.0				
611	0.0				
612	0.0				
613	0.0				
614	0.0				
615	0.0				
616	0.0				
617	0.0				
618	0.0				
619	0.0				
620	0.0				
621	0.0				
622	0.0				
623	0.0				
624	0.0				
625	0.0				
626	0.0				
627	0.0				
628	0.0				
629	0.0				
630	0.0				
631	0.0				
632	0.0				
633	0.0				
634	0.0				
635	0.0				
636	0.0				
637	0.0				
638	0.0				
639	0.0				
640	0.0				
641	0.0				
642	0.0				
643	0.0				
644	0.0				
645	0.0				
646	0.0				
647	0.0				
648	0.0				
649	0.0				
650	0.0				
651	1e-05				
652	4e-05				
653	0.00035000000000000005				
654	0.00532				
655	0.132				
656	0.716				
657	0.9259999999999999				
658	0.935				
659	0.932				
660	0.938				
661	0.927				
662	0.9229999999999999				
663	0.937				
664	0.9440000000000001				
665	0.9359999999999999				
666	0.929				
667	0.938				
668	0.948				
669	0.95				
670	0.9470000000000001				
671	0.943				
672	0.943				
673	0.9520000000000001				
674	0.9570000000000001				
675	0.96				
676	0.953				
677	0.9470000000000001				
678	0.9440000000000001				
679	0.9490000000000001				
680	0.956				
681	0.9620000000000001				
682	0.9640000000000001				
683	0.958				
684	0.95				
685	0.948				
686	0.9490000000000001				
687	0.955				
688	0.96				
689	0.963				
690	0.9590000000000001				
691	0.955				
692	0.951				
693	0.9470000000000001				
694	0.9470000000000001				
695	0.953				
696	0.955				
697	0.961				
698	0.9620000000000001				
699	0.96				
700	0.9520000000000001				
701	0.946				
702	0.945				
703	0.9440000000000001				
704	0.9470000000000001				
705	0.9520000000000001				
706	0.955				
707	0.956				
708	0.9570000000000001				
709	0.956				
710	0.951				
711	0.9470000000000001				
712	0.9440000000000001				
713	0.943				
714	0.9470000000000001				
715	0.95				
716	0.9540000000000001				
717	0.955				
718	0.955				
719	0.955				
720	0.953				
721	0.948				
722	0.946				
723	0.9440000000000001				
724	0.946				
725	0.951				
726	0.9540000000000001				
727	0.96				
728	0.961				
729	0.9620000000000001				
730	0.96				
731	0.9570000000000001				
732	0.9520000000000001				
733	0.953				
734	0.95				
735	0.9490000000000001				
736	0.9520000000000001				
737	0.9540000000000001				
738	0.9570000000000001				
739	0.9620000000000001				
740	0.961				
741	0.963				
742	0.9590000000000001				
743	0.956				
744	0.956				
745	0.951				
746	0.951				
747	0.95				
748	0.9490000000000001				
749	0.953				
750	0.9520000000000001				
751	0.9570000000000001				
752	0.96				
753	0.9590000000000001				
754	0.958				
755	0.96				
756	0.9570000000000001				
757	0.9520000000000001				
758	0.951				
759	0.951				
760	0.9490000000000001				
761	0.946				
762	0.948				
763	0.951				
764	0.956				
765	0.956				
766	0.9590000000000001				
767	0.9570000000000001				
768	0.956				
769	0.955				
770	0.9520000000000001				
771	0.951				
772	0.9490000000000001				
773	0.9440000000000001				
774	0.9420000000000001				
775	0.946				
776	0.9490000000000001				
777	0.946				
778	0.953				
779	0.9520000000000001				
780	0.953				
781	0.9590000000000001				
782	0.958				
783	0.9540000000000001				
784	0.9540000000000001				
785	0.9520000000000001				
786	0.9470000000000001				
787	0.951				
788	0.951				
789	0.9520000000000001				
790	0.948				
791	0.95				
792	0.95				
793	0.9520000000000001				
794	0.9540000000000001				
795	0.958				
796	0.96				
797	0.9620000000000001				
798	0.96				
799	0.9640000000000001				
800	0.9570000000000001				
801	0.9520000000000001				
802	0.948				
803	0.9540000000000001				
804	0.9490000000000001				
805	0.95				
806	0.953				
807	0.956				
808	0.95				
809	0.956				
810	0.9570000000000001				
811	0.9590000000000001				
812	0.9640000000000001				
813	0.9540000000000001				
814	0.961				
815	0.9570000000000001				
816	0.953				
817	0.95				
818	0.9490000000000001				
819	0.9540000000000001				
820	0.946				
821	0.943				
822	0.945				
823	0.946				
824	0.953				
825	0.9570000000000001				
826	0.955				
827	0.955				
828	0.951				
829	0.953				
830	0.956				
831	0.956				
832	0.956				
833	0.945				
834	0.955				
835	0.951				
836	0.946				
837	0.943				
838	0.9440000000000001				
839	0.946				
840	0.951				
841	0.953				
842	0.9490000000000001				
843	0.9490000000000001				
844	0.948				
845	0.945				
846	0.9590000000000001				
847	0.9520000000000001				
848	0.9540000000000001				
849	0.956				
850	0.951				
851	0.95				
852	0.9420000000000001				
853	0.9440000000000001				
854	0.9440000000000001				
855	0.94				
856	0.941				
857	0.946				
858	0.9470000000000001				
859	0.9490000000000001				
860	0.938				
861	0.9490000000000001				
862	0.948				
863	0.9520000000000001				
864	0.948				
865	0.956				
866	0.953				
867	0.9520000000000001				
868	0.958				
869	0.963				
870	0.948				
871	0.9520000000000001				
872	0.9440000000000001				
873	0.953				
874	0.955				
875	0.9470000000000001				
876	0.95				
877	0.95				
878	0.9490000000000001				
879	0.958				
880	0.955				
881	0.955				
882	0.9640000000000001				
883	0.958				
884	0.963				
885	0.96				
886	0.965				
887	0.956				
888	0.96				
889	0.9490000000000001				
890	0.9620000000000001				
891	0.956				
892	0.956				
893	0.946				
894	0.9520000000000001				
895	0.9520000000000001				
896	0.9440000000000001				
897	0.94				
898	0.9470000000000001				
899	0.95				
900	0.948				
901	0.951				
902	0.948				
903	0.9520000000000001				
904	0.948				
905	0.953				
906	0.9470000000000001				
907	0.9470000000000001				
908	0.9440000000000001				
909	0.9520000000000001				
910	0.941				
911	0.9420000000000001				
912	0.9390000000000001				
913	0.9440000000000001				
914	0.937				
915	0.941				
916	0.932				
917	0.937				
918	0.9329999999999999				
919	0.934				
920	0.9329999999999999				
921	0.9309999999999999				
922	0.927				
923	0.9359999999999999				
924	0.9390000000000001				
925	0.934				
926	0.94				
927	0.9440000000000001				
928	0.9420000000000001				
929	0.938				
930	0.946				
931	0.941				
932	0.941				
933	0.9390000000000001				
934	0.937				
935	0.937				
936	0.9390000000000001				
937	0.94				
938	0.943				
939	0.937				
940	0.9390000000000001				
941	0.941				
942	0.9470000000000001				
943	0.946				
944	0.943				
945	0.9470000000000001				
946	0.946				
947	0.9540000000000001				
948	0.953				
949	0.95				
950	0.9570000000000001				
951	0.955				
952	0.9520000000000001				
953	0.963				
954	0.961				
955	0.9470000000000001				
956	0.943				
957	0.956				
958	0.9540000000000001				
959	0.9440000000000001				
960	0.9470000000000001				
961	0.945				
962	0.9420000000000001				
963	0.938				
964	0.945				
965	0.94				
966	0.946				
967	0.945				
968	0.9470000000000001				
969	0.945				
970	0.9359999999999999				
971	0.9440000000000001				
972	0.9490000000000001				
973	0.943				
974	0.951				
975	0.9520000000000001				
976	0.951				
977	0.941				
978	0.9440000000000001				
979	0.948				
980	0.9440000000000001				
981	0.9470000000000001				
982	0.943				
983	0.941				
984	0.941				
985	0.943				
986	0.938				
987	0.9309999999999999				
988	0.9420000000000001				
989	0.9440000000000001				
990	0.937				
991	0.937				
992	0.946				
993	0.9390000000000001				
994	0.9520000000000001				
995	0.951				
996	0.9420000000000001				
997	0.951				
998	0.943				
999	0.9540000000000001				
1000	0.953				
