Wavelength	Transmittance	hex_color	Manufacturer	Name	Filter Number
300	0.0	#838383	Chroma	Unnamed	ET542lp
301	0.0				
302	0.0				
303	0.0				
304	0.0				
305	0.0				
306	0.0				
307	0.0				
308	0.0				
309	0.0				
310	0.0				
311	0.0				
312	0.0				
313	0.0				
314	0.0				
315	0.0				
316	0.0				
317	0.0				
318	0.0				
319	0.0				
320	0.0				
321	0.0				
322	0.0				
323	0.0				
324	0.0				
325	0.0				
326	0.0				
327	0.0				
328	0.0				
329	0.0				
330	0.0				
331	0.0				
332	0.0				
333	0.0				
334	0.0				
335	0.0				
336	0.0				
337	0.0				
338	0.0				
339	0.0				
340	0.0				
341	0.0				
342	0.0				
343	0.0				
344	0.0				
345	0.0				
346	0.0				
347	0.0				
348	0.0				
349	0.0				
350	0.0				
351	0.0				
352	0.0				
353	0.0				
354	0.0				
355	0.0				
356	0.0				
357	0.0				
358	0.0				
359	0.0				
360	0.0				
361	0.0				
362	0.0				
363	0.0				
364	0.0				
365	0.0				
366	0.0				
367	0.0				
368	0.0				
369	0.0				
370	0.0				
371	0.0				
372	0.0				
373	0.0				
374	0.0				
375	0.0				
376	0.0				
377	0.0				
378	0.0				
379	0.0				
380	0.0				
381	0.0				
382	0.0				
383	0.0				
384	0.0				
385	0.0				
386	0.0				
387	0.0				
388	0.0				
389	0.0				
390	0.0				
391	0.0				
392	0.0				
393	0.0				
394	0.0				
395	0.0				
396	0.0				
397	0.0				
398	0.0				
399	0.0				
400	0.0				
401	0.0				
402	0.0				
403	0.0				
404	1e-05				
405	0.0				
406	0.0				
407	0.0				
408	0.0				
409	0.0				
410	0.0				
411	0.0				
412	0.0				
413	0.0				
414	0.0				
415	0.0				
416	0.0				
417	0.0				
418	0.0				
419	0.0				
420	0.0				
421	0.0				
422	0.0				
423	0.0				
424	0.0				
425	0.0				
426	0.0				
427	0.0				
428	0.0				
429	0.0				
430	0.0				
431	0.0				
432	0.0				
433	0.0				
434	0.0				
435	0.0				
436	0.0				
437	0.0				
438	0.0				
439	0.0				
440	0.0				
441	0.0				
442	0.0				
443	0.0				
444	0.0				
445	0.0				
446	0.0				
447	0.0				
448	0.0				
449	0.0				
450	0.0				
451	0.0				
452	0.0				
453	0.0				
454	0.0				
455	0.0				
456	0.0				
457	0.0				
458	0.0				
459	0.0				
460	0.0				
461	0.0				
462	0.0				
463	0.0				
464	0.0				
465	0.0				
466	0.0				
467	0.0				
468	0.0				
469	0.0				
470	0.0				
471	0.0				
472	0.0				
473	0.0				
474	0.0				
475	0.0				
476	0.0				
477	0.0				
478	0.0				
479	0.0				
480	0.0				
481	0.0				
482	0.0				
483	0.0				
484	0.0				
485	0.0				
486	0.0				
487	0.0				
488	0.0				
489	0.0				
490	0.0				
491	0.0				
492	0.0				
493	0.0				
494	0.0				
495	0.0				
496	0.0				
497	0.0				
498	0.0				
499	0.0				
500	0.0				
501	0.0				
502	0.0				
503	0.0				
504	0.0				
505	0.0				
506	0.0				
507	0.0				
508	0.0				
509	0.0				
510	0.0				
511	0.0				
512	0.0				
513	0.0				
514	0.0				
515	0.0				
516	0.0				
517	0.0				
518	0.0				
519	0.0				
520	0.0				
521	0.0				
522	0.0				
523	0.0				
524	0.0				
525	0.0				
526	0.0				
527	0.0				
528	0.0				
529	0.0				
530	0.0				
531	0.0				
532	0.0				
533	0.0				
534	0.0				
535	0.0				
536	0.0				
537	0.0				
538	2e-05				
539	0.00016				
540	0.00164				
541	0.02714				
542	0.35658				
543	0.9065099999999999				
544	0.96782				
545	0.98542				
546	0.98662				
547	0.9872299999999999				
548	0.98944				
549	0.9875799999999999				
550	0.9879399999999999				
551	0.9855800000000001				
552	0.98682				
553	0.98855				
554	0.9884000000000001				
555	0.9895099999999999				
556	0.98867				
557	0.98881				
558	0.99101				
559	0.9889100000000001				
560	0.99007				
561	0.98913				
562	0.98901				
563	0.99107				
564	0.98966				
565	0.99187				
566	0.9892700000000001				
567	0.9869100000000001				
568	0.9851000000000001				
569	0.98622				
570	0.9837699999999999				
571	0.98807				
572	0.99045				
573	0.9894499999999999				
574	0.98861				
575	0.9891599999999999				
576	0.9856900000000001				
577	0.98422				
578	0.98419				
579	0.98541				
580	0.98664				
581	0.9901800000000001				
582	0.99277				
583	0.9921				
584	0.99084				
585	0.99016				
586	0.9869100000000001				
587	0.9856999999999999				
588	0.98351				
589	0.98521				
590	0.98394				
591	0.98545				
592	0.98631				
593	0.9876				
594	0.9883				
595	0.98839				
596	0.98713				
597	0.98894				
598	0.98855				
599	0.98836				
600	0.98961				
601	0.9887				
602	0.98957				
603	0.98706				
604	0.9903700000000001				
605	0.9886199999999999				
606	0.9871099999999999				
607	0.98528				
608	0.98536				
609	0.98344				
610	0.98083				
611	0.9813500000000001				
612	0.97917				
613	0.9783499999999999				
614	0.9786				
615	0.9777899999999999				
616	0.9782299999999999				
617	0.98032				
618	0.9815				
619	0.98276				
620	0.98248				
621	0.9849800000000001				
622	0.98568				
623	0.98531				
624	0.9876900000000001				
625	0.98764				
626	0.98906				
627	0.98811				
628	0.98643				
629	0.98734				
630	0.98584				
631	0.9835699999999999				
632	0.98165				
633	0.9818000000000001				
634	0.9803400000000001				
635	0.98181				
636	0.98158				
637	0.9823000000000001				
638	0.98291				
639	0.98434				
640	0.98482				
641	0.98321				
642	0.9840800000000001				
643	0.98334				
644	0.9808199999999999				
645	0.98122				
646	0.97974				
647	0.97817				
648	0.97796				
649	0.97885				
650	0.9778100000000001				
651	0.9807899999999999				
652	0.9843999999999999				
653	0.98407				
654	0.98553				
655	0.9860599999999999				
656	0.98547				
657	0.9851000000000001				
658	0.98565				
659	0.98225				
660	0.9815900000000001				
661	0.9786199999999999				
662	0.9788				
663	0.97913				
664	0.9804				
665	0.98177				
666	0.98312				
667	0.9847499999999999				
668	0.98764				
669	0.98968				
670	0.99178				
671	0.99095				
672	0.99072				
673	0.99032				
674	0.98733				
675	0.98568				
676	0.9841500000000001				
677	0.9832899999999999				
678	0.9801000000000001				
679	0.9822				
680	0.9817400000000001				
681	0.98076				
682	0.98233				
683	0.9854900000000001				
684	0.9873099999999999				
685	0.9880800000000001				
686	0.9906100000000001				
687	0.9878199999999999				
688	0.98977				
689	0.98957				
690	0.98909				
691	0.9868300000000001				
692	0.9856699999999999				
693	0.98575				
694	0.9833799999999999				
695	0.98452				
696	0.98602				
697	0.9836400000000001				
698	0.9863500000000001				
699	0.98883				
700	0.98768				
701	0.9890300000000001				
702	0.99066				
703	0.98822				
704	0.98937				
705	0.9865900000000001				
706	0.98882				
707	0.98543				
708	0.98149				
709	0.9832299999999999				
710	0.98292				
711	0.9804600000000001				
712	0.98083				
713	0.9817100000000001				
714	0.98089				
715	0.98232				
716	0.98261				
717	0.9835699999999999				
718	0.9840800000000001				
719	0.98356				
720	0.9843000000000001				
721	0.9832				
722	0.982				
723	0.9760800000000001				
724	0.97563				
725	0.97571				
726	0.9743200000000001				
727	0.97229				
728	0.9720300000000001				
729	0.96906				
730	0.97526				
731	0.97027				
732	0.9718800000000001				
733	0.9729099999999999				
734	0.97446				
735	0.97506				
736	0.9748				
737	0.97127				
738	0.97602				
739	0.97461				
740	0.96956				
741	0.9717100000000001				
742	0.97175				
743	0.9643				
744	0.96257				
745	0.96219				
746	0.96351				
747	0.96115				
748	0.9613700000000001				
749	0.96232				
750	0.96898				
751	0.9704699999999999				
752	0.97076				
753	0.9745900000000001				
754	0.97519				
755	0.9790300000000001				
756	0.9778				
757	0.9752500000000001				
758	0.9740300000000001				
759	0.9687600000000001				
760	0.96685				
761	0.9584				
762	0.95111				
763	0.9471200000000001				
764	0.94304				
765	0.94074				
766	0.9348399999999999				
767	0.93186				
768	0.92963				
769	0.9301				
770	0.93191				
771	0.9400499999999999				
772	0.94222				
773	0.9495699999999999				
774	0.95243				
775	0.96319				
776	0.96997				
777	0.9770399999999999				
778	0.97905				
779	0.98541				
780	0.9872799999999999				
781	0.98252				
782	0.98667				
783	0.9815999999999999				
784	0.97321				
785	0.96418				
786	0.95773				
787	0.94882				
788	0.9380700000000001				
789	0.9277200000000001				
790	0.92791				
791	0.91753				
792	0.91533				
793	0.91339				
794	0.91959				
795	0.9198000000000001				
796	0.9238200000000001				
797	0.92322				
798	0.93541				
799	0.94035				
800	0.96214				
801	0.9533799999999999				
802	0.96467				
803	0.9798399999999999				
804	0.98232				
805	0.9860500000000001				
806	0.97571				
807	0.9926600000000001				
808	0.98368				
809	0.97929				
810	0.96968				
811	0.9638100000000001				
812	0.96357				
813	0.95126				
814	0.94659				
815	0.93708				
816	0.93349				
817	0.9376000000000001				
818	0.92152				
819	0.92293				
820	0.9279900000000001				
821	0.91948				
822	0.93074				
823	0.93381				
824	0.93842				
825	0.93167				
826	0.94187				
827	0.9599899999999999				
828	0.9664499999999999				
829	0.9582299999999999				
830	0.96341				
831	0.9729099999999999				
832	0.9659399999999999				
833	0.9653700000000001				
834	0.97211				
835	0.97245				
836	0.96544				
837	0.95951				
838	0.9538				
839	0.9515				
840	0.9416				
841	0.93006				
842	0.93817				
843	0.93512				
844	0.93521				
845	0.92593				
846	0.92582				
847	0.91861				
848	0.92704				
849	0.92861				
850	0.93106				
851	0.92289				
852	0.9344499999999999				
853	0.9460500000000001				
854	0.94222				
855	0.9518000000000001				
856	0.94997				
857	0.95309				
858	0.9603700000000001				
859	0.9626699999999999				
860	0.9617				
861	0.9536199999999999				
862	0.96758				
863	0.9578700000000001				
864	0.9561700000000001				
865	0.95336				
866	0.9590900000000001				
867	0.9555				
868	0.94939				
869	0.93781				
870	0.9426300000000001				
871	0.94089				
872	0.93889				
873	0.9360299999999999				
874	0.9239799999999999				
875	0.92415				
876	0.92771				
877	0.9279900000000001				
878	0.9316				
879	0.9314				
880	0.92381				
881	0.9235599999999999				
882	0.9281				
883	0.9244499999999999				
884	0.9395				
885	0.92865				
886	0.9228400000000001				
887	0.9261499999999999				
888	0.92998				
889	0.92888				
890	0.92093				
891	0.9289799999999999				
892	0.9334				
893	0.9305500000000001				
894	0.92649				
895	0.9274800000000001				
896	0.91577				
897	0.92926				
898	0.92549				
899	0.92759				
900	0.9306				
901	0.9390999999999999				
902	0.9351900000000001				
903	0.93716				
904	0.94418				
905	0.9405100000000001				
906	0.95045				
907	0.95478				
908	0.94746				
909	0.95244				
910	0.95176				
911	0.9566500000000001				
912	0.95289				
913	0.95976				
914	0.96206				
915	0.94172				
916	0.94586				
917	0.93932				
918	0.93643				
919	0.9195				
920	0.9297				
921	0.92092				
922	0.9024				
923	0.90766				
924	0.8976500000000001				
925	0.8992				
926	0.89087				
927	0.8848				
928	0.88031				
929	0.8764				
930	0.87588				
931	0.8832099999999999				
932	0.87708				
933	0.87857				
934	0.88873				
935	0.8956999999999999				
936	0.90181				
937	0.89996				
938	0.9129999999999999				
939	0.90742				
940	0.92538				
941	0.93474				
942	0.9338				
943	0.94478				
944	0.95422				
945	0.96378				
946	0.9679000000000001				
947	0.9727				
948	0.97765				
949	0.9813200000000001				
950	0.9814				
951	0.9864799999999999				
952	0.98277				
953	0.97792				
954	0.97123				
955	0.96989				
956	0.95994				
957	0.9532599999999999				
958	0.94813				
959	0.92959				
960	0.92266				
961	0.9213				
962	0.9098999999999999				
963	0.90346				
964	0.91116				
965	0.9037900000000001				
966	0.88551				
967	0.8955200000000001				
968	0.88277				
969	0.88149				
970	0.8943899999999999				
971	0.88396				
972	0.8915500000000001				
973	0.8906399999999999				
974	0.88602				
975	0.90074				
976	0.90794				
977	0.9084300000000001				
978	0.91113				
979	0.9190699999999999				
980	0.9305100000000001				
981	0.9447				
982	0.94882				
983	0.9366599999999999				
984	0.94902				
985	0.95974				
986	0.9646399999999999				
987	0.9687				
988	0.95601				
989	0.9660500000000001				
990	0.96867				
991	0.95978				
992	0.9563200000000001				
993	0.96737				
994	0.95687				
995	0.9399599999999999				
996	0.94702				
997	0.93766				
998	0.93594				
999	0.9268000000000001				
1000	0.9217400000000001				
