Wavelength	Transmittance	hex_color	Manufacturer	Name	Filter Number
300	0.09124	#838383	Chroma	Unnamed	89100bs
301	0.035230000000000004				
302	0.00012				
303	0.0028299999999999996				
304	0.00771				
305	0.00106				
306	0.0008699999999999999				
307	0.0008				
308	0.00229				
309	8.999999999999999e-05				
310	0.0017499999999999998				
311	0.0025				
312	0.0012				
313	0.0025800000000000003				
314	0.00128				
315	0.00027				
316	0.00291				
317	0.0				
318	2e-05				
319	0.00039				
320	0.00092				
321	0.00014000000000000001				
322	0.00053				
323	0.00037				
324	0.0006900000000000001				
325	0.00132				
326	0.00104				
327	0.00045				
328	0.00041				
329	0.00034				
330	0.00052				
331	7.000000000000001e-05				
332	0.00021				
333	0.00053				
334	0.0007199999999999999				
335	0.0004				
336	0.00048				
337	0.0005099999999999999				
338	0.00065				
339	0.00046				
340	0.00107				
341	0.00058				
342	0.0008100000000000001				
343	0.00052				
344	0.00062				
345	0.00062				
346	0.00053				
347	0.00041				
348	0.00063				
349	0.0008799999999999999				
350	0.0008				
351	0.00062				
352	0.00086				
353	0.00043999999999999996				
354	0.00055				
355	0.00061				
356	0.00055				
357	0.00049				
358	0.00064				
359	0.0007000000000000001				
360	0.00053				
361	0.00057				
362	0.00058				
363	0.00043				
364	0.00055				
365	0.0004				
366	0.00041				
367	0.00031				
368	0.00027				
369	0.0004				
370	0.00041				
371	0.00035999999999999997				
372	0.00035999999999999997				
373	0.00035999999999999997				
374	0.00043999999999999996				
375	0.00012				
376	0.00028000000000000003				
377	0.00031				
378	0.00042				
379	0.00033				
380	0.00033				
381	0.00027				
382	0.00033				
383	0.00041				
384	0.00075				
385	0.00089				
386	0.00073				
387	0.0014199999999999998				
388	0.00266				
389	0.00267				
390	0.004				
391	0.00333				
392	0.00261				
393	0.0025900000000000003				
394	0.0026				
395	0.00191				
396	0.00179				
397	0.00332				
398	0.011739999999999999				
399	0.01825				
400	0.0078000000000000005				
401	0.00377				
402	0.00927				
403	0.00947				
404	0.004				
405	0.00242				
406	0.0023799999999999997				
407	0.00213				
408	0.00319				
409	0.00627				
410	0.01727				
411	0.04913				
412	0.10776				
413	0.22643999999999997				
414	0.35613999999999996				
415	0.37247				
416	0.30264				
417	0.28653				
418	0.3452				
419	0.43235				
420	0.48099				
421	0.48313				
422	0.47964				
423	0.48834000000000005				
424	0.49843000000000004				
425	0.49005000000000004				
426	0.47119				
427	0.46639				
428	0.4902				
429	0.55094				
430	0.62851				
431	0.72086				
432	0.78604				
433	0.8107				
434	0.8137300000000001				
435	0.8290500000000001				
436	0.86936				
437	0.9122499999999999				
438	0.9498399999999999				
439	0.9699800000000001				
440	0.97732				
441	0.9778100000000001				
442	0.97092				
443	0.96016				
444	0.95539				
445	0.9527500000000001				
446	0.95589				
447	0.9618899999999999				
448	0.9649800000000001				
449	0.9659099999999999				
450	0.96297				
451	0.95773				
452	0.95257				
453	0.95246				
454	0.95524				
455	0.96219				
456	0.96962				
457	0.9733799999999999				
458	0.9724200000000001				
459	0.96784				
460	0.96366				
461	0.96295				
462	0.96598				
463	0.9718600000000001				
464	0.9770099999999999				
465	0.9794799999999999				
466	0.97736				
467	0.9754900000000001				
468	0.9761				
469	0.9771299999999999				
470	0.97688				
471	0.97387				
472	0.9686499999999999				
473	0.95794				
474	0.9157500000000001				
475	0.8222799999999999				
476	0.68108				
477	0.52414				
478	0.34868000000000005				
479	0.22006				
480	0.12848				
481	0.07673				
482	0.04819				
483	0.03281				
484	0.02377				
485	0.0183				
486	0.01497				
487	0.01286				
488	0.011619999999999998				
489	0.011009999999999999				
490	0.011000000000000001				
491	0.01139				
492	0.012549999999999999				
493	0.01436				
494	0.01758				
495	0.02244				
496	0.03087				
497	0.04472				
498	0.07002				
499	0.11473000000000001				
500	0.18825				
501	0.29697				
502	0.42396999999999996				
503	0.57003				
504	0.7202299999999999				
505	0.8565900000000001				
506	0.9464				
507	0.97273				
508	0.9792400000000001				
509	0.98111				
510	0.98005				
511	0.97706				
512	0.9760500000000001				
513	0.97765				
514	0.98263				
515	0.9876900000000001				
516	0.98732				
517	0.98218				
518	0.97718				
519	0.97481				
520	0.97724				
521	0.98092				
522	0.9835200000000001				
523	0.9825				
524	0.97821				
525	0.9715699999999999				
526	0.96647				
527	0.9656699999999999				
528	0.96801				
529	0.9711799999999999				
530	0.9720399999999999				
531	0.9710899999999999				
532	0.97006				
533	0.97039				
534	0.9726				
535	0.97572				
536	0.97504				
537	0.96455				
538	0.9351600000000001				
539	0.8774500000000001				
540	0.79482				
541	0.6581999999999999				
542	0.5247999999999999				
543	0.38059				
544	0.26045				
545	0.17794000000000001				
546	0.12527				
547	0.08686999999999999				
548	0.06422				
549	0.048920000000000005				
550	0.03896				
551	0.032189999999999996				
552	0.02741				
553	0.02426				
554	0.02237				
555	0.02109				
556	0.0206				
557	0.020819999999999998				
558	0.02165				
559	0.02315				
560	0.02572				
561	0.02928				
562	0.03458				
563	0.04202				
564	0.05257				
565	0.06842				
566	0.09225				
567	0.12814				
568	0.17586				
569	0.2463				
570	0.34124000000000004				
571	0.44925				
572	0.5726				
573	0.70449				
574	0.82052				
575	0.91175				
576	0.9554				
577	0.96533				
578	0.96462				
579	0.96599				
580	0.97116				
581	0.97512				
582	0.9790300000000001				
583	0.9798399999999999				
584	0.9804999999999999				
585	0.98051				
586	0.9809300000000001				
587	0.98355				
588	0.9856100000000001				
589	0.9865600000000001				
590	0.9863200000000001				
591	0.9848				
592	0.98225				
593	0.98008				
594	0.97847				
595	0.9772700000000001				
596	0.9749899999999999				
597	0.9716800000000001				
598	0.9678				
599	0.96403				
600	0.9601500000000001				
601	0.9589700000000001				
602	0.95875				
603	0.95902				
604	0.96017				
605	0.96283				
606	0.9677800000000001				
607	0.97494				
608	0.9816400000000001				
609	0.98819				
610	0.99042				
611	0.98831				
612	0.9847400000000001				
613	0.97807				
614	0.97057				
615	0.96237				
616	0.95548				
617	0.94719				
618	0.94485				
619	0.94304				
620	0.94304				
621	0.9404399999999999				
622	0.9292400000000001				
623	0.8983199999999999				
624	0.83844				
625	0.75449				
626	0.6551				
627	0.55057				
628	0.45732999999999996				
629	0.37439999999999996				
630	0.30617				
631	0.24788				
632	0.20238				
633	0.16634000000000002				
634	0.13898				
635	0.11718999999999999				
636	0.09977				
637	0.08726				
638	0.07746				
639	0.07006				
640	0.06307				
641	0.05897				
642	0.05624				
643	0.054450000000000005				
644	0.05378				
645	0.05402				
646	0.05527				
647	0.05759				
648	0.06111				
649	0.0659				
650	0.07254				
651	0.08211				
652	0.09308				
653	0.10784				
654	0.12787				
655	0.15262				
656	0.18667				
657	0.23329				
658	0.29059				
659	0.364				
660	0.45301				
661	0.5579				
662	0.6677200000000001				
663	0.7794199999999999				
664	0.8641500000000001				
665	0.92122				
666	0.95466				
667	0.96729				
668	0.96994				
669	0.9675				
670	0.96521				
671	0.9642000000000001				
672	0.9649899999999999				
673	0.9659300000000001				
674	0.96946				
675	0.9722799999999999				
676	0.9743				
677	0.97596				
678	0.97646				
679	0.97565				
680	0.97383				
681	0.9715900000000001				
682	0.96803				
683	0.9645900000000001				
684	0.96197				
685	0.96				
686	0.95881				
687	0.9587				
688	0.96021				
689	0.96304				
690	0.96643				
691	0.9704699999999999				
692	0.97461				
693	0.97736				
694	0.9781799999999999				
695	0.9773900000000001				
696	0.97568				
697	0.9728				
698	0.9686499999999999				
699	0.96583				
700	0.96418				
701	0.96419				
702	0.96723				
703	0.97238				
704	0.97824				
705	0.9831799999999999				
706	0.98603				
707	0.9841500000000001				
708	0.97636				
709	0.9598099999999999				
710	0.93522				
711	0.90288				
712	0.8680100000000001				
713	0.8304699999999999				
714	0.7906799999999999				
715	0.75479				
716	0.72155				
717	0.6951				
718	0.67258				
719	0.65598				
720	0.6421800000000001				
721	0.63165				
722	0.62274				
723	0.61319				
724	0.6029				
725	0.58995				
726	0.57565				
727	0.55854				
728	0.54185				
729	0.52398				
730	0.50831				
731	0.49288				
732	0.47725				
733	0.4575				
734	0.43215000000000003				
735	0.40332999999999997				
736	0.37081000000000003				
737	0.34371				
738	0.32191000000000003				
739	0.30784				
740	0.29624				
741	0.28453				
742	0.26781				
743	0.24527000000000002				
744	0.21530000000000002				
745	0.18177				
746	0.15018				
747	0.12054000000000001				
748	0.09597				
749	0.0774				
750	0.0605				
