Wavelength	Transmittance	hex_color	Manufacturer	Name	Filter Number
380	0.029449999999999997	#838383	Chroma	Unnamed	ZT561rdc
381	0.03468				
382	0.042249999999999996				
383	0.01851				
384	0.00117				
385	0.0				
386	7.000000000000001e-05				
387	0.0				
388	7.000000000000001e-05				
389	0.00012				
390	0.00012				
391	0.00021999999999999998				
392	0.0001				
393	0.0				
394	2e-05				
395	0.00034				
396	0.00028000000000000003				
397	0.00398				
398	0.02528				
399	0.06521				
400	0.07321				
401	0.07344				
402	0.10740999999999999				
403	0.11766				
404	0.08452				
405	0.07522999999999999				
406	0.13949				
407	0.19551				
408	0.138				
409	0.06133				
410	0.04139				
411	0.06766				
412	0.14253				
413	0.16904				
414	0.09720000000000001				
415	0.040830000000000005				
416	0.038900000000000004				
417	0.08868999999999999				
418	0.17204999999999998				
419	0.15996				
420	0.0767				
421	0.030750000000000003				
422	0.03115				
423	0.04288				
424	0.04138				
425	0.02367				
426	0.00903				
427	0.00435				
428	0.0032400000000000003				
429	0.00437				
430	0.006860000000000001				
431	0.009389999999999999				
432	0.00751				
433	0.0033				
434	0.00151				
435	0.0008				
436	0.0006900000000000001				
437	0.0011200000000000001				
438	0.00106				
439	0.00212				
440	0.0027				
441	0.00201				
442	0.00091				
443	0.00049				
444	0.0005099999999999999				
445	0.00035999999999999997				
446	0.0005				
447	0.00078				
448	0.00115				
449	0.00107				
450	0.0008500000000000001				
451	0.00025				
452	0.00031				
453	0.00031				
454	0.00028000000000000003				
455	0.0002				
456	0.00033				
457	0.00055				
458	0.0007000000000000001				
459	0.00041				
460	0.00058				
461	0.00047				
462	0.00034				
463	0.00021999999999999998				
464	0.00034				
465	0.00045				
466	0.00053				
467	0.0007199999999999999				
468	0.00065				
469	0.00068				
470	0.0005600000000000001				
471	0.0004				
472	0.00031				
473	0.00025				
474	0.00025				
475	0.00023				
476	0.00048				
477	0.0006				
478	0.0008100000000000001				
479	0.0009299999999999999				
480	0.00086				
481	0.0008100000000000001				
482	0.0005099999999999999				
483	0.00037				
484	0.00042				
485	0.00043				
486	0.00046				
487	0.00066				
488	0.0008500000000000001				
489	0.0012				
490	0.0017399999999999998				
491	0.00216				
492	0.00221				
493	0.0019500000000000001				
494	0.0016200000000000001				
495	0.00127				
496	0.00117				
497	0.00117				
498	0.00126				
499	0.0017299999999999998				
500	0.0025900000000000003				
501	0.00416				
502	0.00735				
503	0.01123				
504	0.013049999999999999				
505	0.01119				
506	0.0077800000000000005				
507	0.00547				
508	0.00423				
509	0.00358				
510	0.0035299999999999997				
511	0.00359				
512	0.00414				
513	0.00499				
514	0.00661				
515	0.00919				
516	0.012849999999999999				
517	0.01784				
518	0.02222				
519	0.02388				
520	0.02228				
521	0.01885				
522	0.01595				
523	0.01355				
524	0.012190000000000001				
525	0.01184				
526	0.01228				
527	0.01365				
528	0.01602				
529	0.01949				
530	0.024390000000000002				
531	0.02907				
532	0.030459999999999997				
533	0.02727				
534	0.02098				
535	0.01494				
536	0.01076				
537	0.008				
538	0.0062				
539	0.00498				
540	0.00433				
541	0.00392				
542	0.00357				
543	0.0034100000000000003				
544	0.00345				
545	0.0034599999999999995				
546	0.00361				
547	0.00376				
548	0.00402				
549	0.00433				
550	0.0047599999999999995				
551	0.00523				
552	0.00575				
553	0.00633				
554	0.00701				
555	0.00777				
556	0.00879				
557	0.00982				
558	0.01115				
559	0.01299				
560	0.01541				
561	0.01856				
562	0.02267				
563	0.02848				
564	0.03686				
565	0.04872				
566	0.06570999999999999				
567	0.0888				
568	0.12374				
569	0.17248999999999998				
570	0.23476				
571	0.31123999999999996				
572	0.39770000000000005				
573	0.49182000000000003				
574	0.59026				
575	0.70242				
576	0.80554				
577	0.88226				
578	0.92744				
579	0.9476399999999999				
580	0.95446				
581	0.95746				
582	0.95756				
583	0.95796				
584	0.9612099999999999				
585	0.9619				
586	0.9647100000000001				
587	0.96503				
588	0.96573				
589	0.9661				
590	0.96486				
591	0.96721				
592	0.96824				
593	0.9709300000000001				
594	0.9690099999999999				
595	0.96718				
596	0.9683499999999999				
597	0.96615				
598	0.9647100000000001				
599	0.96489				
600	0.96569				
601	0.96544				
602	0.9692700000000001				
603	0.9728100000000001				
604	0.97372				
605	0.97568				
606	0.97765				
607	0.97783				
608	0.9790099999999999				
609	0.97821				
610	0.97508				
611	0.97856				
612	0.97666				
613	0.97494				
614	0.97551				
615	0.9754900000000001				
616	0.9751099999999999				
617	0.9770300000000001				
618	0.9794700000000001				
619	0.9788800000000001				
620	0.9783				
621	0.9780599999999999				
622	0.9795099999999999				
623	0.97968				
624	0.9782500000000001				
625	0.98012				
626	0.9753499999999999				
627	0.9793600000000001				
628	0.97777				
629	0.9775499999999999				
630	0.9808499999999999				
631	0.9799500000000001				
632	0.97738				
633	0.97824				
634	0.9770699999999999				
635	0.9774299999999999				
636	0.9770699999999999				
637	0.97665				
638	0.9748699999999999				
639	0.97512				
640	0.97521				
641	0.97506				
642	0.9771500000000001				
643	0.97697				
644	0.97863				
645	0.98084				
646	0.98249				
647	0.98307				
648	0.98344				
649	0.98417				
650	0.98385				
651	0.9821599999999999				
652	0.98059				
653	0.9812099999999999				
654	0.98071				
655	0.9782500000000001				
656	0.9782299999999999				
657	0.9773999999999999				
658	0.97791				
659	0.9788				
660	0.98006				
661	0.98029				
662	0.98175				
663	0.9822299999999999				
664	0.9822299999999999				
665	0.98138				
666	0.98162				
667	0.98054				
668	0.98004				
669	0.98005				
670	0.97974				
671	0.97906				
672	0.97807				
673	0.9779399999999999				
674	0.9782899999999999				
675	0.98146				
676	0.98104				
677	0.9806199999999999				
678	0.9852599999999999				
679	0.98438				
680	0.98385				
681	0.98237				
682	0.9811				
683	0.9834099999999999				
684	0.98407				
685	0.98307				
686	0.9827400000000001				
687	0.98194				
688	0.98103				
689	0.9814400000000001				
690	0.9812099999999999				
691	0.9817400000000001				
692	0.9827800000000001				
693	0.982				
694	0.98336				
695	0.98225				
696	0.9829000000000001				
697	0.9837600000000001				
698	0.98371				
699	0.98476				
700	0.98374				
701	0.9836400000000001				
702	0.98469				
703	0.98167				
704	0.9815999999999999				
705	0.98256				
706	0.98076				
707	0.9791				
708	0.9808499999999999				
709	0.9799899999999999				
710	0.98199				
711	0.9822299999999999				
712	0.9836100000000001				
713	0.98283				
714	0.98312				
715	0.98339				
716	0.98304				
717	0.98366				
718	0.9842400000000001				
719	0.9835699999999999				
720	0.9839100000000001				
721	0.98452				
722	0.98454				
723	0.98367				
724	0.9837				
725	0.98334				
726	0.98344				
727	0.9836				
728	0.98423				
729	0.9843000000000001				
730	0.98356				
731	0.98418				
732	0.9826600000000001				
733	0.98324				
734	0.9823900000000001				
735	0.9839199999999999				
736	0.9835299999999999				
737	0.98375				
738	0.9829399999999999				
739	0.9820699999999999				
740	0.98018				
741	0.9790099999999999				
742	0.97777				
743	0.97733				
744	0.9773999999999999				
745	0.9786100000000001				
746	0.97832				
747	0.9778600000000001				
748	0.97822				
749	0.9780500000000001				
750	0.97858				
751	0.9792700000000001				
752	0.98				
753	0.98107				
754	0.9799899999999999				
755	0.98096				
756	0.98138				
757	0.9809699999999999				
758	0.98128				
759	0.98333				
760	0.9807299999999999				
761	0.9793999999999999				
762	0.97892				
763	0.97911				
764	0.97897				
765	0.97775				
766	0.9780800000000001				
767	0.98055				
768	0.97757				
769	0.9779000000000001				
770	0.97724				
771	0.97913				
772	0.9803400000000001				
773	0.98044				
774	0.9815900000000001				
775	0.98193				
776	0.9821500000000001				
777	0.98257				
778	0.9836				
779	0.98393				
780	0.98343				
781	0.98291				
782	0.98072				
783	0.98016				
784	0.97909				
785	0.97851				
786	0.97869				
787	0.97652				
788	0.97488				
789	0.97257				
790	0.97229				
791	0.9729000000000001				
792	0.97344				
793	0.97138				
794	0.9732999999999999				
795	0.97503				
796	0.9754999999999999				
797	0.97666				
798	0.97512				
799	0.97636				
800	0.9760899999999999				
801	0.97725				
802	0.9783700000000001				
803	0.97788				
804	0.97758				
805	0.9759				
806	0.9733799999999999				
807	0.97269				
808	0.97045				
809	0.9699800000000001				
810	0.96902				
811	0.9664100000000001				
812	0.96391				
813	0.9626300000000001				
814	0.96172				
815	0.96053				
816	0.95852				
817	0.95894				
818	0.9587300000000001				
819	0.9587600000000001				
820	0.9588899999999999				
821	0.9615699999999999				
822	0.9638100000000001				
823	0.96478				
824	0.96521				
825	0.96488				
826	0.96577				
827	0.96569				
828	0.96422				
829	0.96321				
830	0.96143				
831	0.95959				
832	0.95765				
833	0.95589				
834	0.95498				
835	0.9525199999999999				
836	0.94892				
837	0.94738				
838	0.9451999999999999				
839	0.94238				
840	0.93955				
841	0.9400499999999999				
842	0.93667				
843	0.93561				
844	0.9354300000000001				
845	0.93616				
846	0.93593				
847	0.93489				
848	0.93647				
849	0.9332699999999999				
850	0.93223				
851	0.9280200000000001				
852	0.9229				
853	0.91726				
854	0.91074				
855	0.90024				
856	0.8915500000000001				
857	0.88228				
858	0.87055				
859	0.85997				
860	0.84437				
861	0.8293300000000001				
862	0.8145				
863	0.79996				
864	0.78938				
865	0.7775799999999999				
866	0.7642100000000001				
867	0.7536499999999999				
868	0.7441200000000001				
869	0.73233				
870	0.7233799999999999				
871	0.7117				
872	0.70573				
873	0.69971				
874	0.6926399999999999				
875	0.68674				
876	0.68257				
877	0.67541				
878	0.67389				
879	0.6742199999999999				
880	0.67305				
881	0.6761				
882	0.6769700000000001				
883	0.6827				
884	0.68458				
885	0.69018				
886	0.69738				
887	0.7018800000000001				
888	0.7053100000000001				
889	0.7056100000000001				
890	0.70217				
891	0.68978				
892	0.675				
893	0.6512300000000001				
894	0.62617				
895	0.59695				
896	0.5668500000000001				
897	0.53384				
898	0.50331				
899	0.47933				
900	0.45748				
901	0.43805				
902	0.42512				
903	0.41417000000000004				
904	0.40564999999999996				
905	0.4033				
906	0.40326				
907	0.40674999999999994				
908	0.41355				
909	0.42405000000000004				
910	0.43754				
911	0.45135				
912	0.47123				
913	0.49578000000000005				
914	0.52551				
915	0.56243				
916	0.61509				
917	0.67692				
918	0.7230500000000001				
919	0.72453				
920	0.66061				
921	0.55738				
922	0.45630000000000004				
923	0.38201999999999997				
924	0.33275				
925	0.295				
926	0.26405999999999996				
927	0.23829				
928	0.21628				
929	0.19792				
930	0.18214				
931	0.16946999999999998				
932	0.15791				
933	0.14853				
934	0.14084				
935	0.13474				
936	0.1298				
937	0.12603				
938	0.124				
939	0.12325				
940	0.12364000000000001				
941	0.1255				
942	0.1288				
943	0.13390000000000002				
944	0.14187				
945	0.15295				
946	0.16791				
947	0.18773				
948	0.21518				
949	0.25135				
950	0.29807				
951	0.35258				
952	0.40409				
953	0.4296				
954	0.40881999999999996				
955	0.34589				
956	0.26475000000000004				
957	0.18892				
958	0.13004				
959	0.09176999999999999				
960	0.06583				
961	0.04857				
962	0.03669				
963	0.027559999999999998				
964	0.02144				
965	0.01698				
966	0.01344				
967	0.01091				
968	0.00895				
969	0.0074				
970	0.00613				
971	0.005180000000000001				
972	0.00446				
973	0.00377				
974	0.0032400000000000003				
975	0.0028399999999999996				
976	0.00252				
977	0.0022				
978	0.00189				
979	0.0017000000000000001				
980	0.0015				
981	0.00135				
982	0.0012				
983	0.00108				
984	0.00099				
985	0.00092				
986	0.00079				
987	0.00075				
988	0.00062				
989	0.00055				
990	0.00057				
991	0.00045				
992	0.00053				
993	0.00043				
994	0.00046				
995	0.00045				
996	0.00037				
997	0.00033				
998	0.00032				
999	0.00028000000000000003				
1000	0.0003				
