Wavelength	Transmittance	hex_color	Manufacturer	Name	Filter Number
380	0.09477000000000001	#838383	Chroma	Unnamed	T525lpxr
381	0.09017				
382	0.08346				
383	0.07704				
384	0.09526				
385	0.17195				
386	0.29172				
387	0.32305999999999996				
388	0.20784				
389	0.11403				
390	0.047779999999999996				
391	0.0169				
392	0.00729				
393	0.00433				
394	0.0038900000000000002				
395	0.00387				
396	0.00425				
397	0.00263				
398	0.00156				
399	0.00063				
400	0.00066				
401	0.0007599999999999999				
402	0.00057				
403	0.00039				
404	0.00086				
405	0.00033				
406	0.00075				
407	0.00042				
408	0.00037				
409	0.00024				
410	0.00034				
411	0.00017				
412	0.00025				
413	0.00029				
414	0.00046				
415	3e-05				
416	8e-05				
417	8e-05				
418	8e-05				
419	0.00033				
420	0.00021999999999999998				
421	3e-05				
422	0.0004				
423	0.0003				
424	0.00012				
425	0.00021				
426	0.00035000000000000005				
427	3e-05				
428	0.00015				
429	0.00015				
430	0.00021				
431	4e-05				
432	8e-05				
433	0.00015				
434	0.00034				
435	0.00010999999999999999				
436	0.00017				
437	0.00029				
438	0.0001				
439	0.00034				
440	0.00029				
441	0.00034				
442	0.00021999999999999998				
443	0.00031				
444	0.00017999999999999998				
445	0.00024				
446	0.00024				
447	0.00034				
448	0.00025				
449	0.00021999999999999998				
450	0.0007000000000000001				
451	0.00048				
452	0.0005099999999999999				
453	0.00049				
454	0.0001				
455	0.00024				
456	0.00028000000000000003				
457	0.00021999999999999998				
458	0.00035999999999999997				
459	0.00032				
460	0.0007099999999999999				
461	0.00111				
462	0.00128				
463	0.00133				
464	0.00094				
465	0.00048				
466	0.00043999999999999996				
467	8e-05				
468	0.00046				
469	0.00037999999999999997				
470	0.00045				
471	0.00074				
472	0.00135				
473	0.0028499999999999997				
474	0.00444				
475	0.00444				
476	0.00307				
477	0.0016300000000000002				
478	0.00095				
479	0.00084				
480	0.00065				
481	0.00089				
482	0.0010299999999999999				
483	0.0016300000000000002				
484	0.00344				
485	0.0102				
486	0.016659999999999998				
487	0.014150000000000001				
488	0.005829999999999999				
489	0.00197				
490	0.00109				
491	0.00066				
492	0.00062				
493	0.0006				
494	0.00063				
495	0.00047				
496	0.00055				
497	0.00062				
498	0.00068				
499	0.00083				
500	0.00095				
501	0.00121				
502	0.00172				
503	0.00229				
504	0.00319				
505	0.0044800000000000005				
506	0.00594				
507	0.00733				
508	0.00864				
509	0.00975				
510	0.010700000000000001				
511	0.01173				
512	0.01329				
513	0.01566				
514	0.01901				
515	0.024220000000000002				
516	0.03249				
517	0.04443				
518	0.06452				
519	0.09835				
520	0.14737				
521	0.21927				
522	0.30009				
523	0.38985				
524	0.45439				
525	0.51324				
526	0.58475				
527	0.70526				
528	0.84296				
529	0.9315000000000001				
530	0.9642499999999999				
531	0.96946				
532	0.96834				
533	0.96585				
534	0.96458				
535	0.9647				
536	0.96475				
537	0.96571				
538	0.9668300000000001				
539	0.9668399999999999				
540	0.96675				
541	0.9669199999999999				
542	0.96631				
543	0.96628				
544	0.9677500000000001				
545	0.96892				
546	0.9704200000000001				
547	0.9724200000000001				
548	0.97543				
549	0.97673				
550	0.97872				
551	0.97992				
552	0.98048				
553	0.98181				
554	0.98134				
555	0.98116				
556	0.9807899999999999				
557	0.98014				
558	0.97988				
559	0.9787399999999999				
560	0.9784099999999999				
561	0.9771299999999999				
562	0.97718				
563	0.9753499999999999				
564	0.97477				
565	0.9748699999999999				
566	0.97503				
567	0.97655				
568	0.97785				
569	0.9791200000000001				
570	0.98173				
571	0.98236				
572	0.98222				
573	0.98194				
574	0.98124				
575	0.97973				
576	0.97732				
577	0.97478				
578	0.97282				
579	0.9715900000000001				
580	0.9717199999999999				
581	0.9697				
582	0.97051				
583	0.9719				
584	0.97348				
585	0.97572				
586	0.97913				
587	0.9792400000000001				
588	0.98129				
589	0.9804999999999999				
590	0.97926				
591	0.9787300000000001				
592	0.97669				
593	0.9747				
594	0.97262				
595	0.9720300000000001				
596	0.97179				
597	0.97392				
598	0.9766800000000001				
599	0.97721				
600	0.97893				
601	0.9836				
602	0.9906699999999999				
603	0.99137				
604	0.9941800000000001				
605	0.99367				
606	0.99354				
607	0.9923000000000001				
608	0.9901300000000001				
609	0.9881300000000001				
610	0.9880599999999999				
611	0.9867199999999999				
612	0.98791				
613	0.9890399999999999				
614	0.99028				
615	0.99173				
616	0.99187				
617	0.99151				
618	0.9903700000000001				
619	0.9875700000000001				
620	0.98372				
621	0.97976				
622	0.97497				
623	0.97099				
624	0.9660899999999999				
625	0.96158				
626	0.9586100000000001				
627	0.9575400000000001				
628	0.95718				
629	0.95735				
630	0.95906				
631	0.96029				
632	0.9643				
633	0.96757				
634	0.9702500000000001				
635	0.97163				
636	0.9724299999999999				
637	0.97439				
638	0.9743999999999999				
639	0.97372				
640	0.9725100000000001				
641	0.97138				
642	0.96909				
643	0.96565				
644	0.9632999999999999				
645	0.96097				
646	0.9593				
647	0.9571999999999999				
648	0.95694				
649	0.9576399999999999				
650	0.95892				
651	0.96045				
652	0.96233				
653	0.9649800000000001				
654	0.96724				
655	0.9689				
656	0.9710599999999999				
657	0.9725499999999999				
658	0.97352				
659	0.97354				
660	0.9749800000000001				
661	0.97548				
662	0.9754600000000001				
663	0.9756100000000001				
664	0.97787				
665	0.97847				
666	0.97964				
667	0.98083				
668	0.98209				
669	0.9826699999999999				
670	0.9826				
671	0.9813299999999999				
672	0.9786499999999999				
673	0.9749500000000001				
674	0.96986				
675	0.96346				
676	0.9566800000000001				
677	0.94881				
678	0.9394199999999999				
679	0.93049				
680	0.92143				
681	0.91307				
682	0.90558				
683	0.8998900000000001				
684	0.89464				
685	0.89078				
686	0.88834				
687	0.8874				
688	0.88788				
689	0.88994				
690	0.8928499999999999				
691	0.89716				
692	0.9011499999999999				
693	0.90607				
694	0.9113500000000001				
695	0.91727				
696	0.9208				
697	0.92523				
698	0.92716				
699	0.9283199999999999				
700	0.92723				
701	0.9248000000000001				
702	0.9207899999999999				
703	0.9154300000000001				
704	0.90886				
705	0.90201				
706	0.8959999999999999				
707	0.88896				
708	0.8822199999999999				
709	0.87598				
710	0.8719499999999999				
711	0.86872				
712	0.867				
713	0.866				
714	0.8667100000000001				
715	0.8680100000000001				
716	0.87128				
717	0.8754000000000001				
718	0.8804000000000001				
719	0.88649				
720	0.89295				
721	0.89961				
722	0.9057599999999999				
723	0.91144				
724	0.91598				
725	0.92097				
726	0.9243600000000001				
727	0.9275				
728	0.9292199999999999				
729	0.9311				
730	0.93228				
731	0.9335				
732	0.93379				
733	0.9336				
734	0.93431				
735	0.9349500000000001				
736	0.9342100000000001				
737	0.9349599999999999				
738	0.93523				
739	0.93392				
740	0.93273				
741	0.9306				
742	0.9278				
743	0.9230200000000001				
744	0.91622				
745	0.90845				
746	0.89923				
747	0.88908				
748	0.8776				
749	0.86493				
750	0.8510599999999999				
751	0.8382				
752	0.82404				
753	0.8125100000000001				
754	0.80169				
755	0.792				
756	0.7824899999999999				
757	0.7754800000000001				
758	0.77155				
759	0.7704300000000001				
760	0.77173				
761	0.77608				
762	0.78213				
763	0.79301				
764	0.80479				
765	0.8186				
766	0.83306				
767	0.8456999999999999				
768	0.85682				
769	0.86446				
770	0.8665999999999999				
771	0.86342				
772	0.85481				
773	0.84025				
774	0.82197				
775	0.80256				
776	0.7813800000000001				
777	0.76079				
778	0.74206				
779	0.7245199999999999				
780	0.70883				
781	0.69427				
782	0.6815000000000001				
783	0.67157				
784	0.66018				
785	0.6507				
786	0.6417700000000001				
787	0.6334000000000001				
788	0.6266700000000001				
789	0.62149				
790	0.61747				
791	0.61585				
792	0.6168				
793	0.62121				
794	0.62964				
795	0.6417100000000001				
796	0.65779				
797	0.6787099999999999				
798	0.7061499999999999				
799	0.73371				
800	0.75946				
801	0.77738				
802	0.78089				
803	0.7694				
804	0.7425400000000001				
805	0.70489				
806	0.6622199999999999				
807	0.62066				
808	0.58304				
809	0.5526800000000001				
810	0.5289699999999999				
811	0.51208				
812	0.50078				
813	0.49427				
814	0.49228				
815	0.49393				
816	0.49878				
817	0.50635				
818	0.51647				
819	0.5283				
820	0.54118				
821	0.55619				
822	0.57174				
823	0.58866				
824	0.60646				
825	0.62661				
826	0.6529699999999999				
827	0.6827200000000001				
828	0.71759				
829	0.75099				
830	0.7652599999999999				
831	0.74387				
832	0.6803199999999999				
833	0.59218				
834	0.49936				
835	0.42277000000000003				
836	0.36509				
837	0.31926				
838	0.28602				
839	0.26191				
840	0.23827				
841	0.22167				
842	0.2084				
843	0.19757999999999998				
844	0.18875				
845	0.18199				
846	0.17681999999999998				
847	0.17364000000000002				
848	0.1718				
849	0.17176				
850	0.17312000000000002				
851	0.17667000000000002				
852	0.18219000000000002				
853	0.1905				
854	0.20257999999999998				
855	0.21768				
856	0.23761				
857	0.2644				
858	0.29663				
859	0.33553				
860	0.38137				
861	0.42217				
862	0.44734				
863	0.44259				
864	0.40428				
865	0.34198999999999996				
866	0.27113				
867	0.20809				
868	0.15393				
869	0.11669				
870	0.08891				
871	0.06748				
872	0.0528				
873	0.04138				
874	0.03323				
875	0.025920000000000002				
876	0.02094				
877	0.01743				
878	0.014410000000000001				
879	0.012230000000000001				
880	0.01038				
881	0.00891				
882	0.00771				
883	0.0066500000000000005				
884	0.0057599999999999995				
885	0.0051400000000000005				
886	0.00458				
887	0.0040100000000000005				
888	0.0035199999999999997				
889	0.00314				
890	0.0027900000000000004				
891	0.00264				
892	0.00234				
893	0.00213				
894	0.00194				
895	0.0017399999999999998				
896	0.0016200000000000001				
897	0.00149				
898	0.00131				
899	0.0012900000000000001				
900	0.00115				
901	0.00108				
902	0.00097				
903	0.0009299999999999999				
904	0.00077				
905	0.00073				
906	0.0007099999999999999				
907	0.00064				
908	0.00064				
909	0.00055				
910	0.00057				
911	0.00054				
912	0.00049				
913	0.00047				
914	0.00039				
915	0.0004				
916	0.0004				
917	0.00037999999999999997				
918	0.00034				
919	0.0003				
920	0.00031				
921	0.0003				
922	0.00034				
923	0.00021999999999999998				
924	0.00027				
925	0.00024				
926	0.00027				
927	0.00023				
928	0.00021999999999999998				
929	0.00018999999999999998				
930	0.00017				
931	0.00023				
932	0.00017				
933	0.00018999999999999998				
934	0.00017				
935	0.00013				
936	0.00021				
937	0.00014000000000000001				
938	0.00015				
939	0.00015				
940	0.00017				
941	0.00010999999999999999				
942	0.00016				
943	0.00014000000000000001				
944	0.00014000000000000001				
945	0.00013				
946	0.00013				
947	0.00013				
948	0.00015				
949	7.000000000000001e-05				
950	8.999999999999999e-05				
951	0.0001				
952	8e-05				
953	8e-05				
954	0.00010999999999999999				
955	4e-05				
956	7.000000000000001e-05				
957	8e-05				
958	8e-05				
959	7.000000000000001e-05				
960	4e-05				
961	5e-05				
962	8e-05				
963	0.00010999999999999999				
964	8.999999999999999e-05				
965	5e-05				
966	8e-05				
967	0.0001				
968	4e-05				
969	2e-05				
970	0.00017				
971	4e-05				
972	5e-05				
973	7.000000000000001e-05				
974	0.0001				
975	4e-05				
976	6e-05				
977	4e-05				
978	0.00012				
979	2e-05				
980	0.0001				
981	5e-05				
982	2e-05				
983	3e-05				
984	0.00013				
985	5e-05				
986	2e-05				
987	1e-05				
988	8e-05				
989	6e-05				
990	3e-05				
991	2e-05				
992	7.000000000000001e-05				
993	8.999999999999999e-05				
994	5e-05				
995	7.000000000000001e-05				
996	4e-05				
997	8e-05				
998	0.00012				
999	0.0001				
1000	0.00012				
