Wavelength	Transmittance	hex_color	Manufacturer	Name	Filter Number
300	0.0	#838383	Chroma	Unnamed	ZET442/488m
301	0.0				
302	0.0				
303	0.0				
304	0.0				
305	0.0				
306	0.0				
307	0.0				
308	0.0				
309	0.0				
310	0.0				
311	0.0				
312	0.0				
313	0.0				
314	0.0				
315	0.0				
316	0.0				
317	0.0				
318	0.0				
319	0.0				
320	0.0				
321	0.0				
322	0.0				
323	0.0				
324	0.0				
325	0.0				
326	0.0				
327	0.0				
328	0.0				
329	0.0				
330	0.0				
331	0.0				
332	0.0				
333	0.0				
334	0.0				
335	0.0				
336	0.0				
337	0.0				
338	0.0				
339	0.0				
340	0.0				
341	0.0				
342	0.0				
343	0.0				
344	0.0				
345	0.0				
346	0.0				
347	0.0				
348	0.0				
349	0.0				
350	0.0				
351	0.0				
352	0.0				
353	0.0				
354	0.0				
355	0.0				
356	0.0				
357	0.0				
358	0.0				
359	0.0				
360	0.0				
361	0.0				
362	0.0				
363	0.0				
364	0.0				
365	0.0				
366	0.0				
367	0.0				
368	0.0				
369	0.0				
370	0.0				
371	0.0				
372	0.0				
373	0.0				
374	0.0				
375	0.0				
376	0.0				
377	0.0				
378	0.0				
379	0.0				
380	0.0				
381	0.0				
382	0.0				
383	0.0				
384	0.0				
385	0.0				
386	0.0				
387	0.0				
388	0.0				
389	0.0				
390	0.0				
391	0.0				
392	0.0				
393	0.0				
394	0.0				
395	0.0				
396	0.0				
397	0.0				
398	0.0				
399	0.0				
400	0.0				
401	0.0				
402	0.0				
403	0.0				
404	0.0				
405	0.0				
406	0.0				
407	0.0				
408	0.0				
409	0.0				
410	0.0				
411	0.0				
412	0.0				
413	0.0				
414	0.0				
415	0.0				
416	0.0				
417	0.0				
418	0.0				
419	0.0				
420	0.0				
421	0.0				
422	0.0				
423	0.0				
424	0.0				
425	0.0				
426	0.0				
427	0.0				
428	0.0				
429	0.0				
430	0.0				
431	0.0				
432	0.0				
433	0.0				
434	0.0				
435	0.0				
436	0.0				
437	0.0				
438	0.0				
439	0.0				
440	0.0				
441	0.0				
442	0.0				
443	0.0				
444	0.0				
445	0.0				
446	0.0				
447	0.0				
448	2e-05				
449	0.00029				
450	0.00411				
451	0.19193000000000002				
452	0.68879				
453	0.92581				
454	0.96411				
455	0.96833				
456	0.96816				
457	0.97275				
458	0.9753000000000001				
459	0.97137				
460	0.97595				
461	0.9783700000000001				
462	0.97804				
463	0.97711				
464	0.97919				
465	0.97682				
466	0.9778199999999999				
467	0.96868				
468	0.9686				
469	0.97107				
470	0.97328				
471	0.97268				
472	0.97402				
473	0.97625				
474	0.9718000000000001				
475	0.9356				
476	0.41442				
477	0.04282				
478	0.00315				
479	0.00033				
480	5e-05				
481	1e-05				
482	0.0				
483	0.0				
484	0.0				
485	0.0				
486	0.0				
487	0.0				
488	0.0				
489	0.0				
490	0.0				
491	0.0				
492	0.0				
493	0.0				
494	0.0				
495	0.0				
496	1e-05				
497	2e-05				
498	0.00012				
499	0.00115				
500	0.03388				
501	0.48651000000000005				
502	0.7902				
503	0.88169				
504	0.92008				
505	0.96198				
506	0.9456				
507	0.95038				
508	0.96101				
509	0.96504				
510	0.96419				
511	0.96804				
512	0.97195				
513	0.9640099999999999				
514	0.96288				
515	0.97372				
516	0.97964				
517	0.97665				
518	0.9791500000000001				
519	0.98136				
520	0.9790000000000001				
521	0.97961				
522	0.98143				
523	0.9808100000000001				
524	0.9793999999999999				
525	0.97991				
526	0.98151				
527	0.97992				
528	0.97881				
529	0.9791				
530	0.97944				
531	0.98053				
532	0.9769199999999999				
533	0.9693600000000001				
534	0.9625199999999999				
535	0.97068				
536	0.9798				
537	0.97425				
538	0.9669599999999999				
539	0.96946				
540	0.9740099999999999				
541	0.97289				
542	0.97775				
543	0.97919				
544	0.97435				
545	0.97138				
546	0.97734				
547	0.9768600000000001				
548	0.97555				
549	0.97467				
550	0.9775100000000001				
551	0.9768600000000001				
552	0.97284				
553	0.975				
554	0.97763				
555	0.97541				
556	0.9743600000000001				
557	0.97693				
558	0.97911				
559	0.97673				
560	0.97628				
561	0.98008				
562	0.98029				
563	0.97929				
564	0.9758100000000001				
565	0.98017				
566	0.98368				
567	0.98059				
568	0.98003				
569	0.98209				
570	0.98095				
571	0.97914				
572	0.9816400000000001				
573	0.98342				
574	0.98327				
575	0.9803000000000001				
576	0.9806199999999999				
577	0.9818000000000001				
578	0.98324				
579	0.98009				
580	0.9791599999999999				
581	0.98131				
582	0.98449				
583	0.98248				
584	0.98039				
585	0.98083				
586	0.98303				
587	0.9825499999999999				
588	0.98103				
589	0.98089				
590	0.98173				
591	0.9806199999999999				
592	0.9763200000000001				
593	0.97702				
594	0.97965				
595	0.9828600000000001				
596	0.9795099999999999				
597	0.9761299999999999				
598	0.97652				
599	0.98002				
600	0.98134				
601	0.98004				
602	0.9759300000000001				
603	0.97897				
604	0.98265				
605	0.98366				
606	0.9802299999999999				
607	0.97926				
608	0.98111				
609	0.9821899999999999				
610	0.98367				
611	0.9819599999999999				
612	0.98111				
613	0.98086				
614	0.9839199999999999				
615	0.98238				
616	0.98066				
617	0.98102				
618	0.9817				
619	0.9832599999999999				
620	0.98417				
621	0.98181				
622	0.98084				
623	0.9820300000000001				
624	0.98374				
625	0.98307				
626	0.98285				
627	0.98398				
628	0.9831399999999999				
629	0.98347				
630	0.9809300000000001				
631	0.98055				
632	0.98194				
633	0.98347				
634	0.9838				
635	0.98027				
636	0.97895				
637	0.97941				
638	0.9819100000000001				
639	0.9825				
640	0.98309				
641	0.9798300000000001				
642	0.97797				
643	0.9794700000000001				
644	0.98199				
645	0.98				
646	0.97942				
647	0.9774200000000001				
648	0.98166				
649	0.98149				
650	0.9802599999999999				
651	0.97981				
652	0.97564				
653	0.97568				
654	0.9776600000000001				
655	0.98327				
656	0.98385				
657	0.9798699999999999				
658	0.97914				
659	0.9760500000000001				
660	0.9781799999999999				
661	0.98205				
662	0.9815999999999999				
663	0.9822700000000001				
664	0.97958				
665	0.98008				
666	0.98163				
667	0.9798300000000001				
668	0.9779300000000001				
669	0.97482				
670	0.9734900000000001				
671	0.97553				
672	0.9789100000000001				
673	0.98017				
674	0.97821				
675	0.97355				
676	0.9715				
677	0.97112				
678	0.9731399999999999				
679	0.9756				
680	0.97709				
681	0.975				
682	0.97303				
683	0.97256				
684	0.97426				
685	0.97598				
686	0.9732599999999999				
687	0.9741599999999999				
688	0.97329				
689	0.97485				
690	0.97679				
691	0.97828				
692	0.97519				
693	0.9741500000000001				
694	0.97018				
695	0.96836				
696	0.9718399999999999				
697	0.97674				
698	0.97859				
699	0.97867				
700	0.97536				
701	0.96967				
702	0.96857				
703	0.96947				
704	0.97173				
705	0.97526				
706	0.97977				
707	0.9792799999999999				
708	0.97573				
709	0.9743				
710	0.97211				
711	0.9738500000000001				
712	0.97407				
713	0.97466				
714	0.9740300000000001				
715	0.97604				
716	0.9768600000000001				
717	0.9790399999999999				
718	0.97881				
719	0.97845				
720	0.97665				
721	0.9705800000000001				
722	0.96923				
723	0.97249				
724	0.97508				
725	0.98004				
726	0.98012				
727	0.97768				
728	0.97682				
729	0.9709300000000001				
730	0.9710599999999999				
731	0.97212				
732	0.9741299999999999				
733	0.9742799999999999				
734	0.97706				
735	0.97674				
736	0.9773499999999999				
737	0.9767600000000001				
738	0.9774200000000001				
739	0.9792799999999999				
740	0.9783799999999999				
741	0.9770300000000001				
742	0.97714				
743	0.9747100000000001				
744	0.9741200000000001				
745	0.97434				
746	0.97773				
747	0.9807299999999999				
748	0.98339				
749	0.9815999999999999				
750	0.98075				
751	0.97799				
752	0.97414				
753	0.9744499999999999				
754	0.9732500000000001				
755	0.9748300000000001				
756	0.97431				
757	0.97851				
758	0.98194				
759	0.97898				
760	0.98194				
761	0.9847100000000001				
762	0.98725				
763	0.97931				
764	0.97812				
765	0.97913				
766	0.97347				
767	0.9735299999999999				
768	0.97433				
769	0.97588				
770	0.97847				
771	0.9754900000000001				
772	0.9755800000000001				
773	0.97467				
774	0.97128				
775	0.9699				
776	0.97173				
777	0.97544				
778	0.9721599999999999				
779	0.97073				
780	0.9677800000000001				
781	0.95711				
782	0.95353				
783	0.94875				
784	0.94819				
785	0.94836				
786	0.9543600000000001				
787	0.96185				
788	0.97077				
789	0.97559				
790	0.9791500000000001				
791	0.9782299999999999				
792	0.97764				
793	0.9745				
794	0.97418				
795	0.97344				
796	0.9693200000000001				
797	0.97268				
798	0.9693600000000001				
799	0.9717199999999999				
800	0.97856				
801	0.97514				
802	0.98154				
803	0.9742000000000001				
804	0.97437				
805	0.9736400000000001				
806	0.97089				
807	0.96426				
808	0.9647				
809	0.96211				
810	0.9655				
811	0.96722				
812	0.9703400000000001				
813	0.97386				
814	0.97705				
815	0.9701900000000001				
816	0.97372				
817	0.96658				
818	0.9689				
819	0.96205				
820	0.9666899999999999				
821	0.96474				
822	0.9661				
823	0.97261				
824	0.97637				
825	0.97509				
826	0.97557				
827	0.9680599999999999				
828	0.97225				
829	0.96898				
830	0.9643				
831	0.96748				
832	0.96869				
833	0.96635				
834	0.96772				
835	0.95977				
836	0.96997				
837	0.9628				
838	0.96721				
839	0.9798				
840	0.97529				
841	0.97417				
842	0.96331				
843	0.96465				
844	0.95592				
845	0.95473				
846	0.9438				
847	0.94687				
848	0.95552				
849	0.94953				
850	0.95				
851	0.95562				
852	0.95477				
853	0.9495399999999999				
854	0.94108				
855	0.94113				
856	0.92747				
857	0.92403				
858	0.9227599999999999				
859	0.92002				
860	0.9254600000000001				
861	0.9267				
862	0.91915				
863	0.92691				
864	0.9277				
865	0.92607				
866	0.93312				
867	0.93743				
868	0.94221				
869	0.9312900000000001				
870	0.92301				
871	0.91067				
872	0.89579				
873	0.87507				
874	0.85976				
875	0.86273				
876	0.86273				
877	0.8737900000000001				
878	0.8959199999999999				
879	0.9257				
880	0.94365				
881	0.93971				
882	0.92106				
883	0.873				
884	0.82538				
885	0.7741500000000001				
886	0.7280200000000001				
887	0.71419				
888	0.72125				
889	0.7541100000000001				
890	0.82054				
891	0.8976900000000001				
892	0.93125				
893	0.83179				
894	0.6054200000000001				
895	0.39271999999999996				
896	0.24261				
897	0.14976				
898	0.09696999999999999				
899	0.06414				
900	0.04412				
901	0.03148				
902	0.022869999999999998				
903	0.01697				
904	0.012920000000000001				
905	0.00997				
906	0.00799				
907	0.0064				
908	0.00523				
909	0.00438				
910	0.00369				
911	0.00316				
912	0.0027500000000000003				
913	0.00243				
914	0.00219				
915	0.00197				
916	0.0018				
917	0.00169				
918	0.0016				
919	0.0015199999999999999				
920	0.00147				
921	0.0014299999999999998				
922	0.0014000000000000002				
923	0.0014000000000000002				
924	0.0014199999999999998				
925	0.0014399999999999999				
926	0.00148				
927	0.00153				
928	0.0016200000000000001				
929	0.0017299999999999998				
930	0.00185				
931	0.00199				
932	0.00217				
933	0.0023899999999999998				
934	0.00266				
935	0.003				
936	0.00344				
937	0.00394				
938	0.00459				
939	0.0054600000000000004				
940	0.00649				
941	0.00791				
942	0.00982				
943	0.01254				
944	0.016200000000000003				
945	0.02146				
946	0.029500000000000002				
947	0.041870000000000004				
948	0.06189				
949	0.09667999999999999				
950	0.15454				
951	0.25888				
952	0.4335				
953	0.6420699999999999				
954	0.79132				
955	0.8150700000000001				
956	0.74592				
957	0.67604				
958	0.62493				
959	0.6038600000000001				
960	0.6034				
961	0.62766				
962	0.66214				
963	0.70631				
964	0.74153				
965	0.77569				
966	0.7948000000000001				
967	0.8030200000000001				
968	0.79514				
969	0.78837				
970	0.7879200000000001				
971	0.77807				
972	0.7862699999999999				
973	0.79994				
974	0.80404				
975	0.813				
976	0.82658				
977	0.83257				
978	0.83243				
979	0.8339799999999999				
980	0.82711				
981	0.8297				
982	0.82514				
983	0.8255899999999999				
984	0.81428				
985	0.81525				
986	0.8261				
987	0.8210200000000001				
988	0.82054				
989	0.8201				
990	0.82536				
991	0.8257899999999999				
992	0.82982				
993	0.8332299999999999				
994	0.82902				
995	0.8293300000000001				
996	0.8306100000000001				
997	0.8375				
998	0.8460599999999999				
999	0.85599				
1000	0.86074				
