Wavelength	Transmittance	hex_color	Manufacturer	Name	Filter Number
380	1e-05	#838383	Chroma	Unnamed	69000bs
381	0.0				
382	0.0				
383	0.0				
384	0.0				
385	0.0				
386	0.0				
387	0.00016				
388	0.00047				
389	0.00066				
390	0.0009299999999999999				
391	0.00017999999999999998				
392	0.0				
393	0.0				
394	0.0				
395	0.0				
396	0.0				
397	0.00315				
398	0.0161				
399	0.01145				
400	0.01306				
401	0.00871				
402	0.00208				
403	0.0004				
404	3e-05				
405	0.00010999999999999999				
406	0.00021999999999999998				
407	0.0008699999999999999				
408	0.0029				
409	0.0055000000000000005				
410	0.00738				
411	0.009519999999999999				
412	0.01353				
413	0.0172				
414	0.02099				
415	0.029830000000000002				
416	0.050570000000000004				
417	0.10759				
418	0.15904				
419	0.15466				
420	0.13907999999999998				
421	0.15474				
422	0.20632999999999999				
423	0.29428				
424	0.38065				
425	0.42489				
426	0.41945				
427	0.38268				
428	0.35389000000000004				
429	0.36461				
430	0.44088				
431	0.5813900000000001				
432	0.61316				
433	0.51364				
434	0.42601999999999995				
435	0.40209000000000006				
436	0.43341999999999997				
437	0.54358				
438	0.71637				
439	0.85996				
440	0.9274800000000001				
441	0.9516				
442	0.9665				
443	0.9755400000000001				
444	0.98002				
445	0.98125				
446	0.98104				
447	0.97827				
448	0.97324				
449	0.96923				
450	0.96747				
451	0.9686199999999999				
452	0.96918				
453	0.9689				
454	0.96829				
455	0.96878				
456	0.97048				
457	0.96845				
458	0.96237				
459	0.9538800000000001				
460	0.9472799999999999				
461	0.94955				
462	0.9598300000000001				
463	0.97199				
464	0.97958				
465	0.9735299999999999				
466	0.94279				
467	0.86256				
468	0.7329000000000001				
469	0.5989				
470	0.47159				
471	0.34114				
472	0.2207				
473	0.13406				
474	0.08173				
475	0.052649999999999995				
476	0.03655				
477	0.02533				
478	0.0184				
479	0.013999999999999999				
480	0.0111				
481	0.00923				
482	0.00801				
483	0.00718				
484	0.0066500000000000005				
485	0.0064600000000000005				
486	0.00643				
487	0.00662				
488	0.00711				
489	0.0079				
490	0.00923				
491	0.01117				
492	0.01422				
493	0.01879				
494	0.02672				
495	0.03785				
496	0.055810000000000005				
497	0.09171				
498	0.1493				
499	0.24169000000000002				
500	0.35302				
501	0.46445000000000003				
502	0.56677				
503	0.68647				
504	0.8100700000000001				
505	0.89229				
506	0.93753				
507	0.9598099999999999				
508	0.97116				
509	0.97761				
510	0.9804				
511	0.98138				
512	0.98074				
513	0.97966				
514	0.9777800000000001				
515	0.97662				
516	0.97675				
517	0.9770099999999999				
518	0.9780200000000001				
519	0.97784				
520	0.97634				
521	0.9740300000000001				
522	0.97124				
523	0.96963				
524	0.9693999999999999				
525	0.9706				
526	0.97158				
527	0.97225				
528	0.9730599999999999				
529	0.97515				
530	0.97641				
531	0.9776600000000001				
532	0.97824				
533	0.97635				
534	0.97135				
535	0.96038				
536	0.92238				
537	0.8311799999999999				
538	0.67779				
539	0.49938000000000005				
540	0.33893				
541	0.22001				
542	0.14185999999999999				
543	0.09386				
544	0.06444				
545	0.0464				
546	0.03501				
547	0.0276				
548	0.02245				
549	0.01926				
550	0.017390000000000003				
551	0.01633				
552	0.01595				
553	0.01619				
554	0.01693				
555	0.01839				
556	0.02062				
557	0.02411				
558	0.02902				
559	0.036610000000000004				
560	0.04742				
561	0.06466999999999999				
562	0.08984				
563	0.13003				
564	0.18713000000000002				
565	0.26803				
566	0.36344				
567	0.46378				
568	0.5653900000000001				
569	0.6751999999999999				
570	0.79328				
571	0.8862399999999999				
572	0.9361				
573	0.9450700000000001				
574	0.94516				
575	0.9509399999999999				
576	0.9621999999999999				
577	0.97327				
578	0.97991				
579	0.9844700000000001				
580	0.98556				
581	0.9868899999999999				
582	0.9875400000000001				
583	0.98706				
584	0.9861				
585	0.98263				
586	0.97788				
587	0.97205				
588	0.9674299999999999				
589	0.96465				
590	0.96396				
591	0.9669199999999999				
592	0.97194				
593	0.97788				
594	0.98248				
595	0.9860099999999999				
596	0.9887				
597	0.99033				
598	0.98996				
599	0.9892700000000001				
600	0.9890300000000001				
601	0.9892400000000001				
602	0.9883				
603	0.98748				
604	0.9860599999999999				
605	0.98433				
606	0.98194				
607	0.98018				
608	0.9791500000000001				
609	0.97869				
610	0.9790000000000001				
611	0.9804				
612	0.9815				
613	0.98275				
614	0.9839				
615	0.9848300000000001				
616	0.9863299999999999				
617	0.98797				
618	0.98868				
619	0.9834				
620	0.96667				
621	0.9316200000000001				
622	0.8755				
623	0.8000799999999999				
624	0.7158199999999999				
625	0.62904				
626	0.54736				
627	0.47139000000000003				
628	0.40362000000000003				
629	0.3428				
630	0.29108				
631	0.24741				
632	0.2113				
633	0.18193				
634	0.15841				
635	0.13974				
636	0.12548				
637	0.11412000000000001				
638	0.10628				
639	0.10081				
640	0.09709				
641	0.09593				
642	0.09682				
643	0.09932				
644	0.10414999999999999				
645	0.11079				
646	0.12031				
647	0.13289				
648	0.1502				
649	0.17678000000000002				
650	0.20825				
651	0.24914000000000003				
652	0.30039				
653	0.36865000000000003				
654	0.46549999999999997				
655	0.56732				
656	0.6762				
657	0.78242				
658	0.8711				
659	0.9312999999999999				
660	0.94639				
661	0.92373				
662	0.8829				
663	0.8377500000000001				
664	0.79821				
665	0.76934				
666	0.75335				
667	0.75212				
668	0.7626999999999999				
669	0.78238				
670	0.8090900000000001				
671	0.8447199999999999				
672	0.88046				
673	0.91035				
674	0.93513				
675	0.95132				
676	0.95777				
677	0.95418				
678	0.9441200000000001				
679	0.93216				
680	0.91959				
681	0.90835				
682	0.9				
683	0.89557				
684	0.89536				
685	0.8980400000000001				
686	0.903				
687	0.9095099999999999				
688	0.91687				
689	0.92443				
690	0.93235				
691	0.94038				
692	0.94904				
693	0.95931				
694	0.968				
695	0.9733700000000001				
696	0.97673				
697	0.97297				
698	0.96147				
699	0.94511				
700	0.92173				
701	0.89545				
702	0.86584				
703	0.83211				
704	0.80554				
705	0.78515				
706	0.76955				
707	0.7596599999999999				
708	0.75563				
709	0.7554500000000001				
710	0.75421				
711	0.7504500000000001				
712	0.73867				
713	0.71882				
714	0.68432				
715	0.64385				
716	0.60486				
717	0.56305				
718	0.52452				
719	0.48402999999999996				
720	0.45028				
721	0.42465				
722	0.40467				
723	0.39173				
724	0.38206				
725	0.37198				
726	0.35618				
727	0.32757				
728	0.2999				
729	0.2712				
730	0.25731000000000004				
731	0.25477				
732	0.25896				
733	0.26611999999999997				
734	0.27301				
735	0.27192				
736	0.26052				
737	0.23538				
738	0.20440999999999998				
739	0.1663				
740	0.12694				
741	0.10066000000000001				
742	0.07812000000000001				
743	0.062119999999999995				
744	0.04746				
745	0.03809				
746	0.03167				
747	0.025539999999999997				
748	0.021480000000000003				
749	0.01861				
750	0.01586				
