Wavelength	Transmittance	hex_color	Manufacturer	Name	Filter Number
300	0.0	#838383	Chroma	Unnamed	ET460lp
301	0.0				
302	0.0				
303	0.0				
304	0.0				
305	0.0				
306	0.0				
307	0.0				
308	0.0				
309	0.0				
310	0.0				
311	0.0				
312	0.0				
313	0.0				
314	0.0				
315	0.0				
316	0.0				
317	0.0				
318	0.0				
319	0.0				
320	0.0				
321	0.0				
322	0.0				
323	0.0				
324	0.0				
325	0.0				
326	0.0				
327	0.0				
328	0.0				
329	0.0				
330	0.0				
331	0.0				
332	0.0				
333	0.0				
334	0.0				
335	0.0				
336	0.0				
337	0.0				
338	0.0				
339	0.0				
340	0.0				
341	0.0				
342	0.0				
343	0.0				
344	0.0				
345	0.0				
346	0.0				
347	0.0				
348	0.0				
349	0.0				
350	0.0				
351	0.0				
352	0.0				
353	0.0				
354	0.0				
355	0.0				
356	0.0				
357	0.0				
358	0.0				
359	0.0				
360	0.0				
361	0.0				
362	0.0				
363	0.0				
364	0.0				
365	0.0				
366	0.0				
367	0.0				
368	0.0				
369	0.0				
370	0.0				
371	0.0				
372	0.0				
373	0.0				
374	0.0				
375	0.0				
376	0.0				
377	0.0				
378	0.0				
379	0.0				
380	0.0				
381	0.0				
382	0.0				
383	0.0				
384	0.0				
385	0.0				
386	0.0				
387	0.0				
388	0.0				
389	0.0				
390	0.0				
391	0.0				
392	0.0				
393	0.0				
394	0.0				
395	0.0				
396	0.0				
397	0.0				
398	0.0				
399	0.0				
400	0.0				
401	0.0				
402	0.0				
403	0.0				
404	0.0				
405	0.0				
406	0.0				
407	0.0				
408	0.0				
409	0.0				
410	0.0				
411	0.0				
412	0.0				
413	0.0				
414	0.0				
415	0.0				
416	0.0				
417	0.0				
418	0.0				
419	0.0				
420	0.0				
421	0.0				
422	0.0				
423	0.0				
424	0.0				
425	0.0				
426	0.0				
427	0.0				
428	0.0				
429	0.0				
430	0.0				
431	0.0				
432	0.0				
433	0.0				
434	0.0				
435	0.0				
436	0.0				
437	0.0				
438	0.0				
439	0.0				
440	0.0				
441	0.0				
442	0.0				
443	0.0				
444	0.0				
445	0.0				
446	0.0				
447	0.0				
448	0.0				
449	0.0				
450	0.0				
451	0.0				
452	0.0				
453	0.0				
454	0.0				
455	0.0				
456	2e-05				
457	0.00026				
458	0.0047599999999999995				
459	0.1531				
460	0.7727299999999999				
461	0.9726699999999999				
462	0.9902599999999999				
463	0.9929000000000001				
464	0.9860599999999999				
465	0.9854999999999999				
466	0.9914000000000001				
467	0.99053				
468	0.9865200000000001				
469	0.9835200000000001				
470	0.9889100000000001				
471	0.99118				
472	0.99283				
473	0.99042				
474	0.99229				
475	0.9892400000000001				
476	0.99375				
477	0.9917199999999999				
478	0.9901399999999999				
479	0.98914				
480	0.98496				
481	0.9856900000000001				
482	0.9877400000000001				
483	0.9911				
484	0.9909699999999999				
485	0.9909399999999999				
486	0.9886400000000001				
487	0.98721				
488	0.98752				
489	0.98902				
490	0.99079				
491	0.98871				
492	0.98897				
493	0.98748				
494	0.98901				
495	0.99024				
496	0.99115				
497	0.9919100000000001				
498	0.9895999999999999				
499	0.98952				
500	0.9887699999999999				
501	0.9880800000000001				
502	0.9870399999999999				
503	0.9885200000000001				
504	0.98922				
505	0.99142				
506	0.9893500000000001				
507	0.98818				
508	0.98751				
509	0.9865				
510	0.98843				
511	0.9907699999999999				
512	0.9915600000000001				
513	0.9929300000000001				
514	0.9907699999999999				
515	0.98753				
516	0.98504				
517	0.98411				
518	0.98473				
519	0.9832				
520	0.98772				
521	0.99031				
522	0.992				
523	0.99221				
524	0.9904000000000001				
525	0.9898399999999999				
526	0.9878199999999999				
527	0.98603				
528	0.9857299999999999				
529	0.9872700000000001				
530	0.98954				
531	0.9906699999999999				
532	0.99194				
533	0.9927800000000001				
534	0.99076				
535	0.9909600000000001				
536	0.98897				
537	0.98875				
538	0.98921				
539	0.98993				
540	0.99226				
541	0.99198				
542	0.9942700000000001				
543	0.9914000000000001				
544	0.99221				
545	0.9917199999999999				
546	0.99177				
547	0.99149				
548	0.99226				
549	0.99041				
550	0.9930800000000001				
551	0.99221				
552	0.99206				
553	0.99212				
554	0.99247				
555	0.9921				
556	0.99175				
557	0.9907699999999999				
558	0.99201				
559	0.99154				
560	0.99336				
561	0.9928				
562	0.9925700000000001				
563	0.9926200000000001				
564	0.99394				
565	0.9937900000000001				
566	0.99343				
567	0.9916800000000001				
568	0.9919899999999999				
569	0.99134				
570	0.9912000000000001				
571	0.9909399999999999				
572	0.9918899999999999				
573	0.9926999999999999				
574	0.99264				
575	0.9940300000000001				
576	0.99395				
577	0.99476				
578	0.9914700000000001				
579	0.99114				
580	0.9904000000000001				
581	0.99092				
582	0.9876600000000001				
583	0.9880800000000001				
584	0.98995				
585	0.99035				
586	0.99035				
587	0.99131				
588	0.99374				
589	0.9919199999999999				
590	0.99438				
591	0.99465				
592	0.9944700000000001				
593	0.9925				
594	0.9930599999999999				
595	0.9906				
596	0.9908199999999999				
597	0.98831				
598	0.99009				
599	0.99205				
600	0.9904900000000001				
601	0.9934099999999999				
602	0.9941				
603	0.9932500000000001				
604	0.99237				
605	0.99165				
606	0.9914799999999999				
607	0.98844				
608	0.99031				
609	0.9897100000000001				
610	0.99151				
611	0.99063				
612	0.9925799999999999				
613	0.99161				
614	0.9918				
615	0.9910599999999999				
616	0.98992				
617	0.99114				
618	0.99152				
619	0.99099				
620	0.9883700000000001				
621	0.98751				
622	0.98752				
623	0.98676				
624	0.98746				
625	0.9865999999999999				
626	0.98949				
627	0.99104				
628	0.9929000000000001				
629	0.99286				
630	0.9937				
631	0.9909600000000001				
632	0.98995				
633	0.9883299999999999				
634	0.98545				
635	0.9835299999999999				
636	0.97897				
637	0.9798600000000001				
638	0.97892				
639	0.98021				
640	0.9808100000000001				
641	0.98232				
642	0.9841				
643	0.98603				
644	0.98956				
645	0.99197				
646	0.99138				
647	0.99324				
648	0.99426				
649	0.9915999999999999				
650	0.98851				
651	0.98473				
652	0.98075				
653	0.9777899999999999				
654	0.9756999999999999				
655	0.97391				
656	0.97177				
657	0.97328				
658	0.97402				
659	0.9760599999999999				
660	0.98014				
661	0.9837699999999999				
662	0.98626				
663	0.9901800000000001				
664	0.99178				
665	0.9935200000000001				
666	0.9932099999999999				
667	0.99213				
668	0.98897				
669	0.9865				
670	0.98221				
671	0.97637				
672	0.97179				
673	0.9697100000000001				
674	0.96834				
675	0.96677				
676	0.9668899999999999				
677	0.9699599999999999				
678	0.9700799999999999				
679	0.97467				
680	0.97882				
681	0.9826900000000001				
682	0.98502				
683	0.99092				
684	0.9939100000000001				
685	0.99373				
686	0.99385				
687	0.9928199999999999				
688	0.98982				
689	0.9849				
690	0.9797				
691	0.97443				
692	0.97114				
693	0.96856				
694	0.96686				
695	0.9665				
696	0.96418				
697	0.9675				
698	0.9694499999999999				
699	0.9730599999999999				
700	0.97565				
701	0.97985				
702	0.98167				
703	0.98835				
704	0.98929				
705	0.99491				
706	0.99328				
707	0.99461				
708	0.99187				
709	0.9880200000000001				
710	0.9839199999999999				
711	0.98096				
712	0.9767100000000001				
713	0.97348				
714	0.96923				
715	0.96705				
716	0.9650700000000001				
717	0.9638100000000001				
718	0.96435				
719	0.96577				
720	0.9688599999999999				
721	0.97336				
722	0.9771599999999999				
723	0.98151				
724	0.9829600000000001				
725	0.98983				
726	0.9889100000000001				
727	0.9890399999999999				
728	0.98859				
729	0.9889				
730	0.98776				
731	0.9838800000000001				
732	0.98016				
733	0.97693				
734	0.9740300000000001				
735	0.9700799999999999				
736	0.9673099999999999				
737	0.96402				
738	0.96197				
739	0.9603700000000001				
740	0.96089				
741	0.96135				
742	0.9626399999999999				
743	0.9686199999999999				
744	0.9713299999999999				
745	0.97399				
746	0.97869				
747	0.98005				
748	0.98367				
749	0.98884				
750	0.98756				
751	0.9828100000000001				
752	0.99055				
753	0.98756				
754	0.98443				
755	0.98344				
756	0.9774200000000001				
757	0.97077				
758	0.9681000000000001				
759	0.9644499999999999				
760	0.96286				
761	0.95815				
762	0.9582599999999999				
763	0.95741				
764	0.9554600000000001				
765	0.95257				
766	0.95694				
767	0.9631799999999999				
768	0.9637300000000001				
769	0.96525				
770	0.9689700000000001				
771	0.97964				
772	0.97616				
773	0.98076				
774	0.98077				
775	0.9810500000000001				
776	0.98359				
777	0.98815				
778	0.9829399999999999				
779	0.9807899999999999				
780	0.9765999999999999				
781	0.9734999999999999				
782	0.9697499999999999				
783	0.96244				
784	0.96379				
785	0.95518				
786	0.95292				
787	0.94918				
788	0.94961				
789	0.94738				
790	0.9437300000000001				
791	0.94714				
792	0.94733				
793	0.95077				
794	0.95475				
795	0.9602200000000001				
796	0.9631000000000001				
797	0.9691299999999999				
798	0.96994				
799	0.9712000000000001				
800	0.97714				
801	0.9753000000000001				
802	0.9813500000000001				
803	0.97967				
804	0.9792400000000001				
805	0.9740300000000001				
806	0.9740000000000001				
807	0.96866				
808	0.96616				
809	0.96241				
810	0.95816				
811	0.9584999999999999				
812	0.94916				
813	0.948				
814	0.94349				
815	0.94147				
816	0.9373600000000001				
817	0.93856				
818	0.93967				
819	0.93836				
820	0.94426				
821	0.94709				
822	0.9544				
823	0.9483799999999999				
824	0.9519799999999999				
825	0.9609300000000001				
826	0.9613200000000001				
827	0.96248				
828	0.96497				
829	0.96958				
830	0.97653				
831	0.97321				
832	0.97194				
833	0.97379				
834	0.97131				
835	0.97012				
836	0.96161				
837	0.95248				
838	0.95841				
839	0.9564100000000001				
840	0.95127				
841	0.9455899999999999				
842	0.9416				
843	0.93692				
844	0.93324				
845	0.9371200000000001				
846	0.9276000000000001				
847	0.9324800000000001				
848	0.9279600000000001				
849	0.9315000000000001				
850	0.9205500000000001				
851	0.93521				
852	0.92754				
853	0.93592				
854	0.94383				
855	0.93657				
856	0.9460299999999999				
857	0.9472499999999999				
858	0.95732				
859	0.96359				
860	0.96475				
861	0.96718				
862	0.95837				
863	0.96709				
864	0.9614499999999999				
865	0.9658599999999999				
866	0.96295				
867	0.9585899999999999				
868	0.95742				
869	0.9379900000000001				
870	0.9384				
871	0.93144				
872	0.92559				
873	0.9205599999999999				
874	0.9158700000000001				
875	0.92061				
876	0.9031100000000001				
877	0.9037099999999999				
878	0.9005299999999999				
879	0.90705				
880	0.90518				
881	0.90507				
882	0.90661				
883	0.90664				
884	0.90685				
885	0.90339				
886	0.9120199999999999				
887	0.91598				
888	0.91387				
889	0.9301600000000001				
890	0.94123				
891	0.9368099999999999				
892	0.95004				
893	0.9490500000000001				
894	0.95843				
895	0.9514199999999999				
896	0.96575				
897	0.95504				
898	0.96038				
899	0.9605400000000001				
900	0.95107				
901	0.9489				
902	0.94887				
903	0.94569				
904	0.9398099999999999				
905	0.93814				
906	0.93169				
907	0.91753				
908	0.9198900000000001				
909	0.91022				
910	0.8998900000000001				
911	0.89145				
912	0.8917100000000001				
913	0.89655				
914	0.88118				
915	0.88253				
916	0.87995				
917	0.87873				
918	0.87776				
919	0.87438				
920	0.8920600000000001				
921	0.88738				
922	0.89145				
923	0.88456				
924	0.89042				
925	0.90937				
926	0.90681				
927	0.91432				
928	0.9179200000000001				
929	0.92183				
930	0.92826				
931	0.93565				
932	0.93537				
933	0.94104				
934	0.93301				
935	0.9520399999999999				
936	0.94864				
937	0.93616				
938	0.94163				
939	0.93246				
940	0.9418500000000001				
941	0.93116				
942	0.92586				
943	0.9218600000000001				
944	0.92951				
945	0.90402				
946	0.89629				
947	0.8926099999999999				
948	0.89027				
949	0.8851300000000001				
950	0.8825				
951	0.87902				
952	0.8747400000000001				
953	0.8657299999999999				
954	0.86602				
955	0.87523				
956	0.86586				
957	0.8594499999999999				
958	0.8579000000000001				
959	0.8581799999999999				
960	0.86402				
961	0.86088				
962	0.85521				
963	0.87505				
964	0.8729399999999999				
965	0.8839199999999999				
966	0.88577				
967	0.88361				
968	0.89927				
969	0.90108				
970	0.89949				
971	0.904				
972	0.9105500000000001				
973	0.91988				
974	0.9162				
975	0.9233100000000001				
976	0.93721				
977	0.9231999999999999				
978	0.91752				
979	0.9243300000000001				
980	0.9245699999999999				
981	0.9309999999999999				
982	0.92033				
983	0.92106				
984	0.91891				
985	0.91617				
986	0.89324				
987	0.90643				
988	0.8986700000000001				
989	0.89288				
990	0.87715				
991	0.88249				
992	0.87883				
993	0.87119				
994	0.86914				
995	0.8661				
996	0.8499				
997	0.8398				
998	0.84526				
999	0.85098				
1000	0.85504				
1001	0.85717				
1002	0.85205				
1003	0.84123				
1004	0.85565				
1005	0.8441				
1006	0.84893				
1007	0.84455				
1008	0.8541500000000001				
1009	0.8548600000000001				
1010	0.8567100000000001				
1011	0.8647199999999999				
1012	0.86512				
1013	0.8658899999999999				
1014	0.8694700000000001				
1015	0.88128				
1016	0.8834000000000001				
1017	0.8853300000000001				
1018	0.88616				
1019	0.89267				
1020	0.9045000000000001				
1021	0.89763				
1022	0.8976900000000001				
1023	0.90351				
1024	0.9081699999999999				
1025	0.89603				
1026	0.90348				
1027	0.89688				
1028	0.89684				
1029	0.90223				
1030	0.8922100000000001				
1031	0.8902800000000001				
1032	0.88885				
1033	0.8898600000000001				
1034	0.88591				
1035	0.88569				
1036	0.88115				
1037	0.86934				
1038	0.86275				
1039	0.85688				
1040	0.8460599999999999				
1041	0.8514499999999999				
1042	0.84021				
1043	0.85236				
1044	0.85698				
1045	0.8442799999999999				
1046	0.8347199999999999				
1047	0.82772				
1048	0.8409				
1049	0.83856				
1050	0.8402299999999999				
1051	0.8343200000000001				
1052	0.8309000000000001				
1053	0.83548				
1054	0.8482500000000001				
1055	0.85375				
1056	0.84181				
1057	0.8346800000000001				
1058	0.84663				
1059	0.8552599999999999				
1060	0.8533499999999999				
1061	0.83967				
1062	0.85681				
1063	0.86694				
1064	0.8579399999999999				
1065	0.8591599999999999				
1066	0.86401				
1067	0.8744700000000001				
1068	0.87881				
1069	0.8701300000000001				
1070	0.87358				
1071	0.88562				
1072	0.87256				
1073	0.87895				
1074	0.8786				
1075	0.88106				
1076	0.88185				
1077	0.8874299999999999				
1078	0.88313				
1079	0.87637				
1080	0.8832				
1081	0.87562				
1082	0.8725799999999999				
1083	0.86682				
1084	0.8694799999999999				
1085	0.8641599999999999				
1086	0.86153				
1087	0.86854				
1088	0.84009				
1089	0.8522700000000001				
1090	0.84565				
1091	0.8420300000000001				
1092	0.8477800000000001				
1093	0.82613				
1094	0.8293				
1095	0.83994				
1096	0.8283400000000001				
1097	0.8412999999999999				
1098	0.8166100000000001				
1099	0.83879				
1100	0.8150499999999999				
