Wavelength	Transmittance	hex_color	Manufacturer	Name	Filter Number
380	0.33947000000000005	#838383	Chroma	Unnamed	ZT405/473/561rpc
381	0.40316				
382	0.48573				
383	0.49341999999999997				
384	0.35188				
385	0.17643				
386	0.113				
387	0.12429				
388	0.19774999999999998				
389	0.25949				
390	0.22712				
391	0.12154				
392	0.059770000000000004				
393	0.04168				
394	0.042460000000000005				
395	0.07097				
396	0.1787				
397	0.30334				
398	0.23514				
399	0.08233				
400	0.02204				
401	0.01065				
402	0.007039999999999999				
403	0.00619				
404	0.00532				
405	0.00567				
406	0.00638				
407	0.00729				
408	0.01044				
409	0.01494				
410	0.02426				
411	0.045579999999999996				
412	0.08907999999999999				
413	0.16851				
414	0.2903				
415	0.3972				
416	0.48095				
417	0.57973				
418	0.71294				
419	0.85153				
420	0.9377800000000001				
421	0.96393				
422	0.97395				
423	0.97914				
424	0.9806100000000001				
425	0.9799500000000001				
426	0.97962				
427	0.97856				
428	0.97816				
429	0.97768				
430	0.97834				
431	0.98211				
432	0.9845999999999999				
433	0.98197				
434	0.97586				
435	0.96662				
436	0.9578				
437	0.95599				
438	0.9590000000000001				
439	0.9642499999999999				
440	0.97355				
441	0.97466				
442	0.9757899999999999				
443	0.9730500000000001				
444	0.9699800000000001				
445	0.96785				
446	0.96588				
447	0.9626600000000001				
448	0.95636				
449	0.94916				
450	0.94731				
451	0.95155				
452	0.9518800000000001				
453	0.92124				
454	0.82773				
455	0.68988				
456	0.5121800000000001				
457	0.35493				
458	0.2268				
459	0.14183				
460	0.09359999999999999				
461	0.06337				
462	0.04622				
463	0.03453				
464	0.027719999999999998				
465	0.02298				
466	0.01992				
467	0.01778				
468	0.01655				
469	0.016120000000000002				
470	0.01605				
471	0.01635				
472	0.01752				
473	0.01924				
474	0.022090000000000002				
475	0.02582				
476	0.03173				
477	0.03982				
478	0.05177				
479	0.07035999999999999				
480	0.09813000000000001				
481	0.13623				
482	0.1936				
483	0.2607				
484	0.3408				
485	0.41859999999999997				
486	0.47848				
487	0.53364				
488	0.5901				
489	0.66752				
490	0.7892199999999999				
491	0.8854500000000001				
492	0.95462				
493	0.9676				
494	0.9556100000000001				
495	0.94505				
496	0.94441				
497	0.9522700000000001				
498	0.96463				
499	0.9729800000000001				
500	0.97622				
501	0.97381				
502	0.9682200000000001				
503	0.9610500000000001				
504	0.9557800000000001				
505	0.9537300000000001				
506	0.9555800000000001				
507	0.95991				
508	0.96543				
509	0.97111				
510	0.97648				
511	0.98017				
512	0.98246				
513	0.98379				
514	0.98244				
515	0.98154				
516	0.9790300000000001				
517	0.97553				
518	0.97222				
519	0.96631				
520	0.9601099999999999				
521	0.95417				
522	0.94932				
523	0.9472400000000001				
524	0.9474800000000001				
525	0.9500700000000001				
526	0.9553400000000001				
527	0.9612999999999999				
528	0.9664499999999999				
529	0.9703499999999999				
530	0.97021				
531	0.96345				
532	0.9515699999999999				
533	0.9375100000000001				
534	0.92228				
535	0.91063				
536	0.90619				
537	0.91116				
538	0.92486				
539	0.94331				
540	0.9505800000000001				
541	0.93009				
542	0.86187				
543	0.74512				
544	0.5978				
545	0.46284				
546	0.34404				
547	0.25341				
548	0.19124				
549	0.14685				
550	0.11496				
551	0.09294000000000001				
552	0.07684				
553	0.06478				
554	0.05609				
555	0.04946				
556	0.044669999999999994				
557	0.04131				
558	0.03862				
559	0.03682				
560	0.03571				
561	0.03519				
562	0.035089999999999996				
563	0.035699999999999996				
564	0.036789999999999996				
565	0.03853				
566	0.040999999999999995				
567	0.04421				
568	0.04839				
569	0.05359				
570	0.05987				
571	0.06812				
572	0.07848				
573	0.09157				
574	0.10824				
575	0.13022999999999998				
576	0.15599				
577	0.18738				
578	0.2227				
579	0.26593				
580	0.31543				
581	0.36869				
582	0.42371000000000003				
583	0.47833				
584	0.53017				
585	0.5834				
586	0.63547				
587	0.69649				
588	0.76857				
589	0.8394499999999999				
590	0.9026099999999999				
591	0.94372				
592	0.9614400000000001				
593	0.95931				
594	0.94477				
595	0.94021				
596	0.93147				
597	0.9292100000000001				
598	0.93157				
599	0.93822				
600	0.94696				
601	0.9549				
602	0.9693200000000001				
603	0.97757				
604	0.9840300000000001				
605	0.98688				
606	0.9838				
607	0.98193				
608	0.9760899999999999				
609	0.96974				
610	0.96488				
611	0.96249				
612	0.96055				
613	0.9609300000000001				
614	0.96284				
615	0.96585				
616	0.97024				
617	0.9763200000000001				
618	0.98142				
619	0.98637				
620	0.98933				
621	0.99035				
622	0.9899				
623	0.9876699999999999				
624	0.98429				
625	0.9808100000000001				
626	0.97626				
627	0.97125				
628	0.96724				
629	0.96492				
630	0.96426				
631	0.9619				
632	0.96172				
633	0.96258				
634	0.96649				
635	0.96894				
636	0.9722				
637	0.97512				
638	0.9775499999999999				
639	0.98107				
640	0.9841				
641	0.98653				
642	0.98708				
643	0.9875700000000001				
644	0.98844				
645	0.98655				
646	0.98322				
647	0.97913				
648	0.9760500000000001				
649	0.9725499999999999				
650	0.96966				
651	0.9668800000000001				
652	0.96557				
653	0.9649				
654	0.96502				
655	0.96529				
656	0.96724				
657	0.97075				
658	0.97368				
659	0.976				
660	0.97919				
661	0.98238				
662	0.9859399999999999				
663	0.9882				
664	0.99045				
665	0.99206				
666	0.9910899999999999				
667	0.9901399999999999				
668	0.9885200000000001				
669	0.98643				
670	0.98373				
671	0.981				
672	0.9787699999999999				
673	0.97653				
674	0.9742000000000001				
675	0.972				
676	0.9710599999999999				
677	0.97136				
678	0.97056				
679	0.9711700000000001				
680	0.97249				
681	0.97301				
682	0.9742799999999999				
683	0.97532				
684	0.9772				
685	0.9781799999999999				
686	0.97968				
687	0.9808				
688	0.9814499999999999				
689	0.9824299999999999				
690	0.98342				
691	0.9832				
692	0.9832599999999999				
693	0.9829300000000001				
694	0.9828100000000001				
695	0.9829399999999999				
696	0.98016				
697	0.97749				
698	0.9753400000000001				
699	0.9754600000000001				
700	0.97344				
701	0.97211				
702	0.9718300000000001				
703	0.97111				
704	0.9699599999999999				
705	0.9676699999999999				
706	0.96783				
707	0.96732				
708	0.9663200000000001				
709	0.9661				
710	0.9666				
711	0.96528				
712	0.96626				
713	0.9649500000000001				
714	0.9637600000000001				
715	0.96218				
716	0.9595199999999999				
717	0.95675				
718	0.95532				
719	0.95174				
720	0.94824				
721	0.9469299999999999				
722	0.94408				
723	0.9419799999999999				
724	0.94229				
725	0.94073				
726	0.94053				
727	0.94336				
728	0.94407				
729	0.94527				
730	0.9483799999999999				
731	0.9508				
732	0.95438				
733	0.95865				
734	0.96131				
735	0.9636199999999999				
736	0.96753				
737	0.9695699999999999				
738	0.97226				
739	0.97501				
740	0.97571				
741	0.97612				
742	0.9773900000000001				
743	0.97923				
744	0.98002				
745	0.97926				
746	0.97649				
747	0.97261				
748	0.96979				
749	0.96545				
750	0.96284				
751	0.96124				
752	0.95928				
753	0.95637				
754	0.95407				
755	0.95528				
756	0.95298				
757	0.95107				
758	0.95003				
759	0.95021				
760	0.95109				
761	0.95221				
762	0.9539300000000001				
763	0.95489				
764	0.9544199999999999				
765	0.95839				
766	0.96219				
767	0.9646899999999999				
768	0.96709				
769	0.9699800000000001				
770	0.9709399999999999				
771	0.9736499999999999				
772	0.9737300000000001				
773	0.97398				
774	0.97454				
775	0.97386				
776	0.9731000000000001				
777	0.97342				
778	0.9734999999999999				
779	0.97198				
780	0.9701000000000001				
781	0.96869				
782	0.96825				
783	0.96794				
784	0.96789				
785	0.96768				
786	0.96694				
787	0.96555				
788	0.96525				
789	0.9645600000000001				
790	0.9638				
791	0.9626699999999999				
792	0.96179				
793	0.9595199999999999				
794	0.9578				
795	0.95723				
796	0.9509000000000001				
797	0.94438				
798	0.93427				
799	0.92315				
800	0.90901				
