Wavelength	Transmittance	hex_color	Manufacturer	Name	Filter Number
380	0.55742	#838383	Chroma	Unnamed	ZT442/514rpc
381	0.49951999999999996				
382	0.43723				
383	0.45436				
384	0.36				
385	0.20370999999999997				
386	0.15672				
387	0.046029999999999995				
388	0.008409999999999999				
389	0.0019				
390	0.00043				
391	0.0				
392	0.0				
393	0.0				
394	0.0				
395	0.0				
396	0.0				
397	0.0				
398	0.04476				
399	0.07146				
400	0.04735				
401	0.050069999999999996				
402	0.13366				
403	0.08114				
404	0.04096				
405	0.12073				
406	0.22296				
407	0.07406				
408	0.0466				
409	0.1033				
410	0.2605				
411	0.09566000000000001				
412	0.03955				
413	0.05302				
414	0.19311				
415	0.23173				
416	0.08898999999999999				
417	0.06356				
418	0.14798999999999998				
419	0.36942				
420	0.22099				
421	0.0978				
422	0.10176				
423	0.3121				
424	0.33726				
425	0.15599				
426	0.10911				
427	0.30847				
428	0.43249000000000004				
429	0.30635				
430	0.19457000000000002				
431	0.17571				
432	0.22829				
433	0.05267				
434	0.00795				
435	0.002				
436	0.0006				
437	0.00017999999999999998				
438	0.00012				
439	0.0001				
440	0.00014000000000000001				
441	0.00015				
442	0.00017				
443	0.00033				
444	0.00068				
445	0.00157				
446	0.0034999999999999996				
447	0.00888				
448	0.02553				
449	0.08073999999999999				
450	0.23707				
451	0.43845				
452	0.54688				
453	0.6772199999999999				
454	0.85539				
455	0.93121				
456	0.9144599999999999				
457	0.91445				
458	0.93732				
459	0.96218				
460	0.97824				
461	0.98588				
462	0.99111				
463	0.9940000000000001				
464	0.9918399999999999				
465	0.98677				
466	0.9805800000000001				
467	0.97588				
468	0.9762099999999999				
469	0.9821500000000001				
470	0.9876900000000001				
471	0.98873				
472	0.98539				
473	0.98328				
474	0.98193				
475	0.9826				
476	0.9827400000000001				
477	0.9813299999999999				
478	0.9779300000000001				
479	0.97619				
480	0.9752500000000001				
481	0.97417				
482	0.97289				
483	0.96871				
484	0.9645600000000001				
485	0.96333				
486	0.9668899999999999				
487	0.97253				
488	0.97603				
489	0.97627				
490	0.9749				
491	0.97276				
492	0.97032				
493	0.96543				
494	0.95707				
495	0.94865				
496	0.94179				
497	0.93727				
498	0.9325600000000001				
499	0.9253100000000001				
500	0.92444				
501	0.94192				
502	0.95639				
503	0.9040300000000001				
504	0.73359				
505	0.52566				
506	0.32482				
507	0.18677				
508	0.10705				
509	0.06926				
510	0.04484				
511	0.0308				
512	0.023010000000000003				
513	0.01843				
514	0.01584				
515	0.014650000000000002				
516	0.01439				
517	0.015029999999999998				
518	0.01665				
519	0.019710000000000002				
520	0.02497				
521	0.03374				
522	0.04904				
523	0.07595				
524	0.11426				
525	0.19086999999999998				
526	0.30718				
527	0.44152				
528	0.55294				
529	0.67616				
530	0.8108299999999999				
531	0.89165				
532	0.9157899999999999				
533	0.92414				
534	0.9420099999999999				
535	0.96224				
536	0.97544				
537	0.97663				
538	0.9725199999999999				
539	0.96824				
540	0.9665				
541	0.96652				
542	0.9680599999999999				
543	0.96622				
544	0.96406				
545	0.96265				
546	0.96332				
547	0.9660899999999999				
548	0.97235				
549	0.97775				
550	0.98031				
551	0.97839				
552	0.97434				
553	0.9688500000000001				
554	0.9632200000000001				
555	0.96248				
556	0.96565				
557	0.96909				
558	0.9752299999999999				
559	0.97885				
560	0.9797499999999999				
561	0.97774				
562	0.9737699999999999				
563	0.9707899999999999				
564	0.9681399999999999				
565	0.96906				
566	0.9715				
567	0.97355				
568	0.9758499999999999				
569	0.9768399999999999				
570	0.9771				
571	0.97557				
572	0.97387				
573	0.97122				
574	0.9699899999999999				
575	0.96994				
576	0.97027				
577	0.97104				
578	0.9718600000000001				
579	0.97224				
580	0.9721599999999999				
581	0.9711				
582	0.97077				
583	0.9704				
584	0.97013				
585	0.97064				
586	0.97197				
587	0.97321				
588	0.9732999999999999				
589	0.9748399999999999				
590	0.97565				
591	0.97521				
592	0.9752299999999999				
593	0.97517				
594	0.97526				
595	0.97566				
596	0.97473				
597	0.9730500000000001				
598	0.97096				
599	0.96943				
600	0.9658199999999999				
601	0.9626699999999999				
602	0.9603100000000001				
603	0.95776				
604	0.9567100000000001				
605	0.9563299999999999				
606	0.95828				
607	0.96006				
608	0.96285				
609	0.9640900000000001				
610	0.96635				
611	0.9669199999999999				
612	0.96772				
613	0.96831				
614	0.96938				
615	0.97071				
616	0.97167				
617	0.97223				
618	0.97425				
619	0.97418				
620	0.9772				
621	0.97815				
622	0.9798600000000001				
623	0.97893				
624	0.97952				
625	0.97897				
626	0.9790399999999999				
627	0.9785299999999999				
628	0.97871				
629	0.9792000000000001				
630	0.97974				
631	0.98041				
632	0.9793999999999999				
633	0.9804				
634	0.97869				
635	0.97749				
636	0.9752299999999999				
637	0.97405				
638	0.97226				
639	0.9705800000000001				
640	0.9692700000000001				
641	0.9688500000000001				
642	0.96807				
643	0.96964				
644	0.96931				
645	0.9705400000000001				
646	0.9712999999999999				
647	0.9718399999999999				
648	0.9726699999999999				
649	0.97199				
650	0.9721500000000001				
651	0.97212				
652	0.9722				
653	0.97125				
654	0.9712000000000001				
655	0.97087				
656	0.97253				
657	0.97332				
658	0.97381				
659	0.97497				
660	0.97681				
661	0.97789				
662	0.97846				
663	0.9789100000000001				
664	0.97886				
665	0.97914				
666	0.97964				
667	0.97991				
668	0.98005				
669	0.98089				
670	0.9797499999999999				
671	0.97938				
672	0.97828				
673	0.97708				
674	0.97679				
675	0.97566				
676	0.9748				
677	0.9742000000000001				
678	0.9734				
679	0.9745				
680	0.97514				
681	0.9765900000000001				
682	0.97795				
683	0.9783499999999999				
684	0.97843				
685	0.97819				
686	0.9777				
687	0.97635				
688	0.9744499999999999				
689	0.97224				
690	0.97024				
691	0.9680500000000001				
692	0.96655				
693	0.9653				
694	0.96527				
695	0.9662900000000001				
696	0.9675199999999999				
697	0.9702299999999999				
698	0.9731000000000001				
699	0.97572				
700	0.9760500000000001				
701	0.9776				
702	0.97711				
703	0.97663				
704	0.97383				
705	0.9699599999999999				
706	0.9645900000000001				
707	0.9604600000000001				
708	0.95612				
709	0.9522799999999999				
710	0.95101				
711	0.94967				
712	0.94929				
713	0.94896				
714	0.9507899999999999				
715	0.9522499999999999				
716	0.95458				
717	0.95658				
718	0.95759				
719	0.9582200000000001				
720	0.95753				
721	0.95648				
722	0.9552299999999999				
723	0.9547				
724	0.95439				
725	0.95367				
726	0.95416				
727	0.9562999999999999				
728	0.9562900000000001				
729	0.95967				
730	0.96262				
731	0.96443				
732	0.9658199999999999				
733	0.96625				
734	0.96276				
735	0.95781				
736	0.95226				
737	0.94583				
738	0.93616				
739	0.92648				
740	0.9193300000000001				
741	0.9124800000000001				
742	0.91009				
743	0.90839				
744	0.9094199999999999				
745	0.9111899999999999				
746	0.9177299999999999				
747	0.92711				
748	0.93581				
749	0.94501				
750	0.9481				
