Wavelength	Transmittance	hex_color	Manufacturer	Name	Filter Number
300	0.41353	#838383	Chroma	Unnamed	ZT365bcm
301	0.33091000000000004				
302	0.25989999999999996				
303	0.22338000000000002				
304	0.20937				
305	0.19299				
306	0.1439				
307	0.10337				
308	0.07936				
309	0.07311				
310	0.08185				
311	0.10293				
312	0.14767				
313	0.22458999999999998				
314	0.2901				
315	0.24748				
316	0.14829				
317	0.06902				
318	0.03371				
319	0.01818				
320	0.01095				
321	0.0067800000000000004				
322	0.00439				
323	0.0037				
324	0.00248				
325	0.0011200000000000001				
326	0.00097				
327	0.00035000000000000005				
328	0.0015199999999999999				
329	0.00025				
330	0.00083				
331	0.00083				
332	0.00079				
333	0.00123				
334	8.999999999999999e-05				
335	0.00053				
336	0.0				
337	0.00058				
338	0.00021999999999999998				
339	0.00058				
340	0.00046				
341	0.00048				
342	0.00063				
343	0.00052				
344	0.00047				
345	0.00045				
346	0.00037999999999999997				
347	0.00042				
348	0.00012				
349	0.00043				
350	0.00042				
351	0.0005				
352	0.00027				
353	0.0006				
354	0.00047				
355	0.00053				
356	0.00065				
357	0.00063				
358	0.00067				
359	0.0007000000000000001				
360	0.0009299999999999999				
361	0.0007099999999999999				
362	0.0008500000000000001				
363	0.00091				
364	0.00101				
365	0.00115				
366	0.00114				
367	0.00156				
368	0.00168				
369	0.00184				
370	0.00215				
371	0.00256				
372	0.0028699999999999997				
373	0.00338				
374	0.00383				
375	0.00453				
376	0.0053300000000000005				
377	0.0064				
378	0.00748				
379	0.00883				
380	0.010920000000000001				
381	0.01257				
382	0.0154				
383	0.01926				
384	0.023889999999999998				
385	0.02941				
386	0.03734				
387	0.04675				
388	0.062				
389	0.07998999999999999				
390	0.10103				
391	0.12761				
392	0.15905				
393	0.19413				
394	0.24093				
395	0.28704				
396	0.33567				
397	0.3822				
398	0.42085				
399	0.45343000000000006				
400	0.47708				
401	0.49168999999999996				
402	0.50094				
403	0.5099				
404	0.51581				
405	0.52576				
406	0.5387				
407	0.55915				
408	0.60023				
409	0.63847				
410	0.68471				
411	0.7399				
412	0.80238				
413	0.8573099999999999				
414	0.90432				
415	0.93982				
416	0.96143				
417	0.97469				
418	0.9790099999999999				
419	0.9795900000000001				
420	0.9785200000000001				
421	0.97473				
422	0.97253				
423	0.9718899999999999				
424	0.97342				
425	0.9726699999999999				
426	0.9744499999999999				
427	0.97653				
428	0.97787				
429	0.97918				
430	0.9804				
431	0.9832				
432	0.98299				
433	0.98433				
434	0.98797				
435	0.9851800000000001				
436	0.98519				
437	0.98547				
438	0.9863500000000001				
439	0.9847499999999999				
440	0.9834099999999999				
441	0.98397				
442	0.9838				
443	0.98481				
444	0.98559				
445	0.98504				
446	0.98485				
447	0.98553				
448	0.9864700000000001				
449	0.9873099999999999				
450	0.98662				
451	0.98682				
452	0.98803				
453	0.98844				
454	0.98628				
455	0.9858499999999999				
456	0.98666				
457	0.9858499999999999				
458	0.9849800000000001				
459	0.9844499999999999				
460	0.98509				
461	0.9842400000000001				
462	0.98454				
463	0.98292				
464	0.9826900000000001				
465	0.98258				
466	0.9825499999999999				
467	0.9839100000000001				
468	0.9834900000000001				
469	0.98383				
470	0.9835699999999999				
471	0.9808				
472	0.98277				
473	0.9832500000000001				
474	0.98295				
475	0.9842700000000001				
476	0.98444				
477	0.98395				
478	0.98468				
479	0.9864400000000001				
480	0.9870699999999999				
481	0.98595				
482	0.98669				
483	0.988				
484	0.987				
485	0.98555				
486	0.98661				
487	0.9900100000000001				
488	0.99017				
489	0.98985				
490	0.98964				
491	0.98834				
492	0.9896299999999999				
493	0.98756				
494	0.9870099999999999				
495	0.98603				
496	0.98665				
497	0.98676				
498	0.98613				
499	0.9858199999999999				
500	0.9859399999999999				
501	0.98559				
502	0.98586				
503	0.9848300000000001				
504	0.9834900000000001				
505	0.9834499999999999				
506	0.9827899999999999				
507	0.9827400000000001				
508	0.98095				
509	0.98258				
510	0.9817199999999999				
511	0.98264				
512	0.98304				
513	0.98236				
514	0.98351				
515	0.9838				
516	0.98386				
517	0.9849899999999999				
518	0.98555				
519	0.98631				
520	0.98613				
521	0.9859				
522	0.9852500000000001				
523	0.98347				
524	0.98462				
525	0.98492				
526	0.9822299999999999				
527	0.9840300000000001				
528	0.98324				
529	0.98367				
530	0.98506				
531	0.98595				
532	0.98706				
533	0.98785				
534	0.98726				
535	0.98599				
536	0.98563				
537	0.98531				
538	0.98437				
539	0.98431				
540	0.98461				
541	0.98399				
542	0.98402				
543	0.9825				
544	0.98335				
545	0.9828				
546	0.9844799999999999				
547	0.9848699999999999				
548	0.98432				
549	0.9845				
550	0.98339				
551	0.98339				
552	0.98316				
553	0.98309				
554	0.98283				
555	0.983				
556	0.9822700000000001				
557	0.98234				
558	0.98285				
559	0.98248				
560	0.98198				
561	0.98149				
562	0.98113				
563	0.98122				
564	0.98078				
565	0.9810500000000001				
566	0.98098				
567	0.9799599999999999				
568	0.97968				
569	0.9802500000000001				
570	0.9808100000000001				
571	0.98095				
572	0.98089				
573	0.9803700000000001				
574	0.97905				
575	0.9788800000000001				
576	0.9785299999999999				
577	0.97931				
578	0.97722				
579	0.97844				
580	0.9790300000000001				
581	0.97953				
582	0.97887				
583	0.97978				
584	0.9793000000000001				
585	0.9784999999999999				
586	0.97934				
587	0.9793999999999999				
588	0.97914				
589	0.97965				
590	0.9791				
591	0.97878				
592	0.9789				
593	0.9787399999999999				
594	0.9784999999999999				
595	0.97822				
596	0.9782				
597	0.9778100000000001				
598	0.9776699999999999				
599	0.97753				
600	0.97697				
601	0.98321				
602	0.98241				
603	0.98187				
604	0.98248				
605	0.98374				
606	0.983				
607	0.98163				
608	0.98153				
609	0.98019				
610	0.97944				
611	0.9797100000000001				
612	0.9798699999999999				
613	0.97958				
614	0.97884				
615	0.97736				
616	0.97642				
617	0.9775100000000001				
618	0.97655				
619	0.97646				
620	0.97637				
621	0.97346				
622	0.97224				
623	0.97348				
624	0.97417				
625	0.97405				
626	0.9742700000000001				
627	0.97393				
628	0.97261				
629	0.97334				
630	0.97327				
631	0.9732500000000001				
632	0.9736499999999999				
633	0.9736400000000001				
634	0.9734				
635	0.97394				
636	0.9728600000000001				
637	0.97264				
638	0.97358				
639	0.97391				
640	0.97225				
641	0.9718000000000001				
642	0.97063				
643	0.97012				
644	0.97013				
645	0.97111				
646	0.97134				
647	0.97165				
648	0.9705800000000001				
649	0.96978				
650	0.97021				
651	0.9702500000000001				
652	0.9711				
653	0.97131				
654	0.97152				
655	0.9714				
656	0.9712999999999999				
657	0.97124				
658	0.9706600000000001				
659	0.97015				
660	0.9698699999999999				
661	0.97017				
662	0.97027				
663	0.97016				
664	0.96967				
665	0.96921				
666	0.96981				
667	0.96979				
668	0.9698399999999999				
669	0.9687399999999999				
670	0.96863				
671	0.96875				
672	0.9687699999999999				
673	0.96844				
674	0.9688800000000001				
675	0.96902				
676	0.96871				
677	0.97001				
678	0.96866				
679	0.96745				
680	0.9688800000000001				
681	0.9679300000000001				
682	0.96776				
683	0.96741				
684	0.96762				
685	0.96734				
686	0.96691				
687	0.9658199999999999				
688	0.96502				
689	0.9649500000000001				
690	0.96481				
691	0.9646399999999999				
692	0.96375				
693	0.96288				
694	0.9638500000000001				
695	0.9634699999999999				
696	0.96276				
697	0.96207				
698	0.96113				
699	0.9607899999999999				
700	0.9601500000000001				
701	0.96038				
702	0.95998				
703	0.9592700000000001				
704	0.95878				
705	0.95807				
706	0.9573999999999999				
707	0.95736				
708	0.95714				
709	0.9568300000000001				
710	0.9566800000000001				
711	0.9562				
712	0.95604				
713	0.95575				
714	0.9554				
715	0.95512				
716	0.95465				
717	0.95446				
718	0.95369				
719	0.9532200000000001				
720	0.95297				
721	0.95261				
722	0.95249				
723	0.9525199999999999				
724	0.9522499999999999				
725	0.9518300000000001				
726	0.9516100000000001				
727	0.9521200000000001				
728	0.95194				
729	0.9522700000000001				
730	0.95217				
731	0.9515699999999999				
732	0.95173				
733	0.95109				
734	0.95048				
735	0.9505899999999999				
736	0.95109				
737	0.95065				
738	0.95123				
739	0.9512999999999999				
740	0.95111				
741	0.95075				
742	0.95077				
743	0.9504900000000001				
744	0.95107				
745	0.9511400000000001				
746	0.95038				
747	0.9503				
748	0.95069				
749	0.95026				
750	0.95012				
751	0.9502200000000001				
752	0.94994				
753	0.94962				
754	0.94883				
755	0.94878				
756	0.95001				
757	0.94894				
758	0.94908				
759	0.94908				
760	0.94824				
761	0.94792				
762	0.94817				
763	0.94836				
764	0.94914				
765	0.94881				
766	0.9504600000000001				
767	0.9498000000000001				
768	0.94837				
769	0.9472400000000001				
770	0.9468300000000001				
771	0.9479000000000001				
772	0.94864				
773	0.94836				
774	0.94866				
775	0.94853				
776	0.9475				
777	0.9469				
778	0.9467				
779	0.9466				
780	0.94589				
781	0.9457599999999999				
782	0.9455800000000001				
783	0.9451900000000001				
784	0.94542				
785	0.94506				
786	0.94375				
787	0.9434699999999999				
788	0.94453				
789	0.9448099999999999				
790	0.9435800000000001				
791	0.9423900000000001				
792	0.9433				
793	0.94204				
794	0.94099				
795	0.9417300000000001				
796	0.94324				
797	0.94108				
798	0.9366500000000001				
799	0.93633				
800	0.93562				
