Wavelength	Transmittance	hex_color	Manufacturer	Name	Filter Number
350	0.36605	#838383	Chroma	Unnamed	ZT375rdc
351	0.29784				
352	0.23605				
353	0.261				
354	0.33385				
355	0.30079999999999996				
356	0.26171				
357	0.34106000000000003				
358	0.36837000000000003				
359	0.25567				
360	0.1161				
361	0.04589000000000001				
362	0.023540000000000002				
363	0.013959999999999998				
364	0.00979				
365	0.00737				
366	0.00596				
367	0.00494				
368	0.00446				
369	0.00393				
370	0.00381				
371	0.00362				
372	0.00345				
373	0.00434				
374	0.00368				
375	0.0044				
376	0.00488				
377	0.0059299999999999995				
378	0.0069299999999999995				
379	0.008159999999999999				
380	0.01011				
381	0.01435				
382	0.01895				
383	0.026949999999999998				
384	0.03852				
385	0.05809				
386	0.09352				
387	0.15145				
388	0.23797999999999997				
389	0.34435000000000004				
390	0.44699				
391	0.53627				
392	0.6247				
393	0.72212				
394	0.83044				
395	0.91655				
396	0.96158				
397	0.98083				
398	0.98655				
399	0.98875				
400	0.98763				
401	0.98964				
402	0.98914				
403	0.9854900000000001				
404	0.9855800000000001				
405	0.98517				
406	0.9848699999999999				
407	0.98437				
408	0.98197				
409	0.98114				
410	0.9799500000000001				
411	0.98084				
412	0.97649				
413	0.97748				
414	0.9756199999999999				
415	0.96883				
416	0.97048				
417	0.97563				
418	0.97477				
419	0.97514				
420	0.97797				
421	0.97732				
422	0.97571				
423	0.97722				
424	0.97454				
425	0.97064				
426	0.97033				
427	0.96855				
428	0.96557				
429	0.9660599999999999				
430	0.96559				
431	0.9696899999999999				
432	0.96992				
433	0.96964				
434	0.9703499999999999				
435	0.97086				
436	0.9704699999999999				
437	0.9726300000000001				
438	0.97394				
439	0.97566				
440	0.9743999999999999				
441	0.97343				
442	0.9728100000000001				
443	0.9695199999999999				
444	0.9680200000000001				
445	0.9694400000000001				
446	0.9693600000000001				
447	0.96967				
448	0.97211				
449	0.97372				
450	0.97366				
451	0.9718000000000001				
452	0.97084				
453	0.97017				
454	0.9706				
455	0.96896				
456	0.9695199999999999				
457	0.97153				
458	0.97135				
459	0.97071				
460	0.9716800000000001				
461	0.97296				
462	0.97571				
463	0.97787				
464	0.9798399999999999				
465	0.98122				
466	0.98129				
467	0.9815				
468	0.9831				
469	0.98287				
470	0.98075				
471	0.97878				
472	0.97783				
473	0.97807				
474	0.97819				
475	0.97724				
476	0.97863				
477	0.97831				
478	0.9790000000000001				
479	0.98006				
480	0.9802200000000001				
481	0.98258				
482	0.98438				
483	0.9856999999999999				
484	0.98666				
485	0.9872799999999999				
486	0.98749				
487	0.98722				
488	0.98737				
489	0.98694				
490	0.98661				
491	0.98666				
492	0.98687				
493	0.9866800000000001				
494	0.9860899999999999				
495	0.9865900000000001				
496	0.9865200000000001				
497	0.9867100000000001				
498	0.9867400000000001				
499	0.98717				
500	0.98736				
501	0.98676				
502	0.98631				
503	0.98551				
504	0.98623				
505	0.9855700000000001				
506	0.9851000000000001				
507	0.9844700000000001				
508	0.98422				
509	0.98378				
510	0.9832299999999999				
511	0.98253				
512	0.98211				
513	0.9822799999999999				
514	0.9821500000000001				
515	0.98068				
516	0.9803499999999999				
517	0.97953				
518	0.9780599999999999				
519	0.9771500000000001				
520	0.97831				
521	0.9782899999999999				
522	0.97746				
523	0.97708				
524	0.9764499999999999				
525	0.9756100000000001				
526	0.97382				
527	0.9733499999999999				
528	0.9721599999999999				
529	0.97259				
530	0.97205				
531	0.97234				
532	0.97273				
533	0.97329				
534	0.9736100000000001				
535	0.97387				
536	0.97438				
537	0.97466				
538	0.9749				
539	0.97446				
540	0.9737600000000001				
541	0.9758100000000001				
542	0.9769199999999999				
543	0.97792				
544	0.9784900000000001				
545	0.9766800000000001				
546	0.9769599999999999				
547	0.97501				
548	0.9746299999999999				
549	0.97649				
550	0.9753400000000001				
551	0.97501				
552	0.97442				
553	0.9730500000000001				
554	0.97207				
555	0.9721899999999999				
556	0.9721899999999999				
557	0.9717				
558	0.97041				
559	0.96988				
560	0.96833				
561	0.9676				
562	0.96729				
563	0.9665600000000001				
564	0.96765				
565	0.9688899999999999				
566	0.9704200000000001				
567	0.9716800000000001				
568	0.9714499999999999				
569	0.96917				
570	0.96868				
571	0.9703				
572	0.9709699999999999				
573	0.97167				
574	0.97078				
575	0.96828				
576	0.96821				
577	0.9658199999999999				
578	0.96358				
579	0.9621999999999999				
580	0.96206				
581	0.96134				
582	0.9610599999999999				
583	0.9587				
584	0.9572799999999999				
585	0.95722				
586	0.9556600000000001				
587	0.95487				
588	0.95332				
589	0.9538800000000001				
590	0.9551099999999999				
591	0.9551999999999999				
592	0.95647				
593	0.9576600000000001				
594	0.9589799999999999				
595	0.95973				
596	0.96052				
597	0.96295				
598	0.96408				
599	0.96623				
600	0.96834				
601	0.9694799999999999				
602	0.97182				
603	0.97288				
604	0.97493				
605	0.9767				
606	0.97789				
607	0.9770099999999999				
608	0.97709				
609	0.97709				
610	0.9767199999999999				
611	0.9762000000000001				
612	0.97489				
613	0.9732999999999999				
614	0.97237				
615	0.97221				
616	0.9713299999999999				
617	0.9687399999999999				
618	0.96851				
619	0.96733				
620	0.96604				
621	0.96555				
622	0.96505				
623	0.96393				
624	0.9636100000000001				
625	0.96268				
626	0.9618300000000001				
627	0.96107				
628	0.96081				
629	0.9626699999999999				
630	0.96356				
631	0.96399				
632	0.96543				
633	0.9666				
634	0.9684				
635	0.96917				
636	0.97072				
637	0.97153				
638	0.97396				
639	0.9753700000000001				
640	0.97885				
641	0.98264				
642	0.98358				
643	0.9835699999999999				
644	0.98262				
645	0.98297				
646	0.9841599999999999				
647	0.9845099999999999				
648	0.98503				
649	0.98495				
650	0.98547				
651	0.9840000000000001				
652	0.9854				
653	0.98551				
654	0.98556				
655	0.98578				
656	0.98346				
657	0.9808				
658	0.9797899999999999				
659	0.97774				
660	0.97695				
661	0.9762099999999999				
662	0.97669				
663	0.9760500000000001				
664	0.9758100000000001				
665	0.9756999999999999				
666	0.9744499999999999				
667	0.97347				
668	0.97396				
669	0.9753799999999999				
670	0.97439				
671	0.97437				
672	0.9749899999999999				
673	0.97342				
674	0.9740800000000001				
675	0.9742799999999999				
676	0.97563				
677	0.97747				
678	0.9783				
679	0.98029				
680	0.98252				
681	0.97954				
682	0.9811799999999999				
683	0.9810800000000001				
684	0.98089				
685	0.98301				
686	0.9834499999999999				
687	0.98378				
688	0.98409				
689	0.98331				
690	0.98411				
691	0.9826999999999999				
692	0.9820699999999999				
693	0.98271				
694	0.98028				
695	0.97933				
696	0.9780800000000001				
697	0.97762				
698	0.97718				
699	0.97539				
700	0.97489				
701	0.9744700000000001				
702	0.9729300000000001				
703	0.9720099999999999				
704	0.9719599999999999				
705	0.9714100000000001				
706	0.9709399999999999				
707	0.97014				
708	0.97043				
709	0.96748				
710	0.96681				
711	0.9648399999999999				
712	0.9650799999999999				
713	0.9639700000000001				
714	0.9628700000000001				
715	0.96195				
716	0.9612099999999999				
717	0.9626600000000001				
718	0.96226				
719	0.9612099999999999				
720	0.96161				
721	0.96256				
722	0.96206				
723	0.96097				
724	0.9601099999999999				
725	0.95946				
726	0.9587699999999999				
727	0.9578700000000001				
728	0.95703				
729	0.95622				
730	0.95497				
731	0.9546399999999999				
732	0.9546899999999999				
733	0.95406				
734	0.95258				
735	0.95185				
736	0.9509099999999999				
737	0.95107				
738	0.9509799999999999				
739	0.94939				
740	0.94932				
741	0.94977				
742	0.9483499999999999				
743	0.9476300000000001				
744	0.94797				
745	0.94786				
746	0.94745				
747	0.94664				
748	0.94679				
749	0.94827				
750	0.94961				
751	0.94982				
752	0.9503900000000001				
753	0.94931				
754	0.95051				
755	0.9495				
756	0.9500700000000001				
757	0.94974				
758	0.9511799999999999				
759	0.9503				
760	0.94941				
761	0.94831				
762	0.94798				
763	0.9476600000000001				
764	0.94747				
765	0.94604				
766	0.9440900000000001				
767	0.94174				
768	0.94017				
769	0.93792				
770	0.9359099999999999				
771	0.93432				
772	0.9320999999999999				
773	0.9288500000000001				
774	0.9249200000000001				
775	0.92203				
776	0.92002				
777	0.91774				
778	0.91328				
779	0.90881				
780	0.9053				
781	0.90238				
782	0.9000499999999999				
783	0.8962699999999999				
784	0.8922199999999999				
785	0.88897				
786	0.88602				
787	0.8845399999999999				
788	0.87907				
789	0.87665				
790	0.87449				
791	0.87127				
792	0.86788				
793	0.86713				
794	0.8653				
795	0.8636499999999999				
796	0.86425				
797	0.8581799999999999				
798	0.85969				
799	0.86055				
800	0.86239				
