Wavelength	Transmittance	hex_color	Manufacturer	Name	Filter Number
350	0.37159	#838383	Chroma	Unnamed	nd0532transv20
351	0.37294				
352	0.37309				
353	0.37388				
354	0.37239				
355	0.37198				
356	0.3726				
357	0.37323				
358	0.37329				
359	0.3729				
360	0.37412999999999996				
361	0.37357				
362	0.37233				
363	0.37227				
364	0.37329999999999997				
365	0.37323999999999996				
366	0.37195				
367	0.37235				
368	0.37311				
369	0.37144				
370	0.37194000000000005				
371	0.3726				
372	0.37200000000000005				
373	0.37099				
374	0.37198				
375	0.37027				
376	0.3712				
377	0.37058				
378	0.37142000000000003				
379	0.37131000000000003				
380	0.3715				
381	0.37098				
382	0.37097				
383	0.37056				
384	0.37085				
385	0.36912				
386	0.36954				
387	0.36896999999999996				
388	0.3693				
389	0.36966				
390	0.3691				
391	0.36935				
392	0.36878				
393	0.36755000000000004				
394	0.36756				
395	0.36811				
396	0.36765000000000003				
397	0.36741999999999997				
398	0.36693				
399	0.36756999999999995				
400	0.36597				
401	0.36565				
402	0.36511000000000005				
403	0.36646				
404	0.36448				
405	0.3655				
406	0.36444000000000004				
407	0.36284999999999995				
408	0.36390999999999996				
409	0.364				
410	0.36284999999999995				
411	0.36265000000000003				
412	0.36369				
413	0.3619				
414	0.36156				
415	0.36148				
416	0.36185				
417	0.36097999999999997				
418	0.36081				
419	0.3603				
420	0.36001				
421	0.35987				
422	0.35951				
423	0.35906999999999994				
424	0.35882				
425	0.35902999999999996				
426	0.35873				
427	0.3577				
428	0.35711				
429	0.35678				
430	0.35696				
431	0.35661000000000004				
432	0.35658				
433	0.35570999999999997				
434	0.35527000000000003				
435	0.35548				
436	0.35493				
437	0.35418				
438	0.3538				
439	0.35302999999999995				
440	0.35414999999999996				
441	0.35265				
442	0.35234000000000004				
443	0.3517				
444	0.35201				
445	0.35106000000000004				
446	0.35088				
447	0.35095999999999994				
448	0.34997				
449	0.35012				
450	0.34939				
451	0.34874000000000005				
452	0.34918999999999994				
453	0.34881999999999996				
454	0.348				
455	0.34851				
456	0.34729				
457	0.34759				
458	0.34633				
459	0.34635				
460	0.34607				
461	0.34569000000000005				
462	0.34517000000000003				
463	0.34460999999999997				
464	0.34438				
465	0.34406				
466	0.3442				
467	0.34339				
468	0.34264000000000006				
469	0.34269				
470	0.34245				
471	0.34204999999999997				
472	0.34177				
473	0.34137				
474	0.34098				
475	0.34058999999999995				
476	0.34147				
477	0.33987				
478	0.34001				
479	0.33945000000000003				
480	0.33931				
481	0.33904				
482	0.33781				
483	0.3386				
484	0.33817				
485	0.33753999999999995				
486	0.33677				
487	0.33698				
488	0.336				
489	0.33602				
490	0.33588999999999997				
491	0.33572				
492	0.33549999999999996				
493	0.33485				
494	0.33445				
495	0.33387				
496	0.33379				
497	0.33377				
498	0.33299				
499	0.33264000000000005				
500	0.33309				
501	0.33248				
502	0.33122				
503	0.33151				
504	0.33118000000000003				
505	0.33073				
506	0.33055				
507	0.32957000000000003				
508	0.32994				
509	0.32999				
510	0.32957000000000003				
511	0.32914				
512	0.32835000000000003				
513	0.32822				
514	0.32807000000000003				
515	0.32775				
516	0.32643				
517	0.32635				
518	0.32667				
519	0.32679				
520	0.32578				
521	0.32551				
522	0.32528				
523	0.32472				
524	0.3248				
525	0.32462				
526	0.32445				
527	0.32392000000000004				
528	0.32380000000000003				
529	0.32366999999999996				
530	0.3234				
531	0.32311				
532	0.32243				
533	0.32295999999999997				
534	0.32175				
535	0.32162				
536	0.32218				
537	0.32148000000000004				
538	0.32078				
539	0.32073999999999997				
540	0.32073999999999997				
541	0.32043				
542	0.31986000000000003				
543	0.31987				
544	0.31854				
545	0.31899				
546	0.31837				
547	0.31832				
548	0.31798				
549	0.31821				
550	0.31736000000000003				
551	0.31789				
552	0.31748				
553	0.31724				
554	0.31672				
555	0.31582				
556	0.31562				
557	0.31546				
558	0.31532				
559	0.31448				
560	0.31542000000000003				
561	0.31524				
562	0.3148				
563	0.31423				
564	0.31445				
565	0.31369				
566	0.31354				
567	0.31376000000000004				
568	0.31311				
569	0.31365				
570	0.31229				
571	0.31253				
572	0.3126				
573	0.31196999999999997				
574	0.31203				
575	0.31178				
576	0.31165				
577	0.31121				
578	0.31106				
579	0.31102				
580	0.31073				
581	0.31038				
582	0.30993				
583	0.30994				
584	0.30952				
585	0.3095				
586	0.30944				
587	0.30859000000000003				
588	0.30908				
589	0.30797				
590	0.30858				
591	0.30781				
592	0.30801				
593	0.30786				
594	0.30725				
595	0.30719				
596	0.3073				
597	0.30713999999999997				
598	0.30692				
599	0.30651				
600	0.30595				
601	0.30533				
602	0.30604				
603	0.305				
604	0.30537				
605	0.30518999999999996				
606	0.30502				
607	0.30509000000000003				
608	0.30452999999999997				
609	0.30406				
610	0.30472				
611	0.30393000000000003				
612	0.30389				
613	0.30362				
614	0.30376000000000003				
615	0.30365				
616	0.30332000000000003				
617	0.30277				
618	0.30245				
619	0.30246				
620	0.30219999999999997				
621	0.30260000000000004				
622	0.30156				
623	0.30182				
624	0.30203				
625	0.30132000000000003				
626	0.30113				
627	0.30102				
628	0.30117				
629	0.30043				
630	0.30052				
631	0.30046				
632	0.30039				
633	0.30002				
634	0.29914999999999997				
635	0.29936				
636	0.29892				
637	0.29911				
638	0.29881				
639	0.29833				
640	0.29803				
641	0.29855				
642	0.29796				
643	0.29791				
644	0.29811				
645	0.29782				
646	0.29753				
647	0.29753				
648	0.29683				
649	0.29685				
650	0.29677				
651	0.29645				
652	0.29651				
653	0.2962				
654	0.29600000000000004				
655	0.29533000000000004				
656	0.29621				
657	0.29506				
658	0.29532				
659	0.29511				
660	0.29438				
661	0.2948				
662	0.29474				
663	0.29442				
664	0.29438				
665	0.29407				
666	0.29396				
667	0.29359				
668	0.29368				
669	0.29324				
670	0.29294				
671	0.29297				
672	0.29294				
673	0.29309				
674	0.29269				
675	0.29212				
676	0.29239				
677	0.2918				
678	0.29188				
679	0.29145				
680	0.29116				
681	0.29142				
682	0.29147				
683	0.29133				
684	0.29103				
685	0.29041				
686	0.29053999999999996				
687	0.29103999999999997				
688	0.29079				
689	0.29022				
690	0.28984000000000004				
691	0.28944				
692	0.28954				
693	0.28947				
694	0.28902				
695	0.28931				
696	0.28859999999999997				
697	0.28864				
698	0.28857				
699	0.28908				
700	0.28842				
701	0.28807				
702	0.28824				
703	0.28763				
704	0.2866				
705	0.28782				
706	0.28789000000000003				
707	0.28779				
708	0.28637				
709	0.28764				
710	0.28771				
711	0.28644				
712	0.28631				
713	0.28620999999999996				
714	0.28625				
715	0.28658				
716	0.28629				
717	0.28605				
718	0.28492				
719	0.28545000000000004				
720	0.28598				
721	0.28569				
722	0.28447				
723	0.28489000000000003				
724	0.28482				
725	0.28442				
726	0.28521				
727	0.284				
728	0.28454				
729	0.28447				
730	0.28404				
731	0.28452				
732	0.28350000000000003				
733	0.28464				
734	0.28306000000000003				
735	0.28343				
736	0.28413				
737	0.28277				
738	0.28371999999999997				
739	0.28275				
740	0.28246				
741	0.28241				
742	0.28172				
743	0.28384				
744	0.28313				
745	0.28208				
746	0.28087				
747	0.28132999999999997				
748	0.28155				
749	0.28112				
750	0.0034899999999999996				
