Wavelength	Transmittance	hex_color	Manufacturer	Name	Filter Number
380	0.01699	#838383	Chroma	Unnamed	ZT488/640rpc
381	0.02326				
382	0.0152				
383	0.0042				
384	0.00499				
385	0.01224				
386	0.01846				
387	0.028530000000000003				
388	0.08143				
389	0.11619				
390	0.06613000000000001				
391	0.07866				
392	0.16058				
393	0.20788				
394	0.15292999999999998				
395	0.04887				
396	0.00617				
397	0.00209				
398	0.00309				
399	0.01555				
400	0.046689999999999995				
401	0.061959999999999994				
402	0.04734				
403	0.02834				
404	0.012580000000000001				
405	0.0059				
406	0.00409				
407	0.0027				
408	0.00114				
409	0.00099				
410	0.00099				
411	0.00108				
412	0.0017599999999999998				
413	0.00148				
414	0.00106				
415	0.00061				
416	0.00068				
417	0.00067				
418	0.00068				
419	0.00073				
420	0.00124				
421	0.0025900000000000003				
422	0.0144				
423	0.0479				
424	0.06287				
425	0.03497				
426	0.02852				
427	0.07676				
428	0.12542				
429	0.09359				
430	0.04354				
431	0.02598				
432	0.024929999999999997				
433	0.035539999999999995				
434	0.03617				
435	0.03039				
436	0.039689999999999996				
437	0.10117000000000001				
438	0.19327000000000003				
439	0.18031				
440	0.10674				
441	0.08696				
442	0.11286				
443	0.17287				
444	0.19236				
445	0.13085000000000002				
446	0.05222				
447	0.01413				
448	0.00634				
449	0.0039900000000000005				
450	0.00302				
451	0.0028299999999999996				
452	0.00331				
453	0.00503				
454	0.0106				
455	0.02672				
456	0.05912				
457	0.11315				
458	0.1877				
459	0.22676				
460	0.15519				
461	0.07577				
462	0.04938				
463	0.040839999999999994				
464	0.05126				
465	0.10211				
466	0.13352				
467	0.09656				
468	0.049749999999999996				
469	0.02544				
470	0.026760000000000003				
471	0.06971				
472	0.12695				
473	0.12416				
474	0.06413				
475	0.024169999999999997				
476	0.00743				
477	0.004739999999999999				
478	0.0062				
479	0.012889999999999999				
480	0.03025				
481	0.040369999999999996				
482	0.02412				
483	0.00865				
484	0.0049				
485	0.0043				
486	0.00271				
487	0.00167				
488	0.00158				
489	0.00178				
490	0.00234				
491	0.0032500000000000003				
492	0.005390000000000001				
493	0.0103				
494	0.02463				
495	0.06994				
496	0.17534				
497	0.32343000000000005				
498	0.44077				
499	0.46253				
500	0.47064				
501	0.5395				
502	0.69281				
503	0.8665999999999999				
504	0.95587				
505	0.9594400000000001				
506	0.94973				
507	0.93902				
508	0.93572				
509	0.9476399999999999				
510	0.9637600000000001				
511	0.97478				
512	0.9770099999999999				
513	0.9745199999999999				
514	0.97165				
515	0.9670300000000001				
516	0.9614100000000001				
517	0.95505				
518	0.9507899999999999				
519	0.95205				
520	0.9562				
521	0.9611700000000001				
522	0.9628				
523	0.9564900000000001				
524	0.94804				
525	0.9420000000000001				
526	0.94354				
527	0.95097				
528	0.96336				
529	0.96929				
530	0.97086				
531	0.9714400000000001				
532	0.9702200000000001				
533	0.9723				
534	0.97467				
535	0.9797199999999999				
536	0.98271				
537	0.98151				
538	0.97653				
539	0.97194				
540	0.9684				
541	0.96925				
542	0.9735299999999999				
543	0.9799500000000001				
544	0.98442				
545	0.986				
546	0.98402				
547	0.97937				
548	0.9732999999999999				
549	0.9656600000000001				
550	0.96125				
551	0.95881				
552	0.9545999999999999				
553	0.95473				
554	0.95761				
555	0.96167				
556	0.9659099999999999				
557	0.96925				
558	0.9723099999999999				
559	0.97233				
560	0.9704699999999999				
561	0.96918				
562	0.9662000000000001				
563	0.9656699999999999				
564	0.96794				
565	0.9699800000000001				
566	0.97043				
567	0.9716899999999999				
568	0.9661				
569	0.96125				
570	0.95648				
571	0.9527500000000001				
572	0.94961				
573	0.94965				
574	0.9496800000000001				
575	0.94863				
576	0.94592				
577	0.94147				
578	0.93522				
579	0.9344100000000001				
580	0.9325				
581	0.93785				
582	0.9453100000000001				
583	0.9554900000000001				
584	0.96237				
585	0.9684900000000001				
586	0.97086				
587	0.96758				
588	0.95875				
589	0.9533400000000001				
590	0.95065				
591	0.95297				
592	0.95891				
593	0.9660599999999999				
594	0.97223				
595	0.9737				
596	0.96829				
597	0.95916				
598	0.9439799999999999				
599	0.93384				
600	0.93072				
601	0.9442100000000001				
602	0.95863				
603	0.9730200000000001				
604	0.98				
605	0.97804				
606	0.96612				
607	0.94887				
608	0.9280700000000001				
609	0.91521				
610	0.9146899999999999				
611	0.92928				
612	0.9502299999999999				
613	0.97051				
614	0.9817400000000001				
615	0.9752				
616	0.9540900000000001				
617	0.9306				
618	0.92327				
619	0.9311				
620	0.9437399999999999				
621	0.9218500000000001				
622	0.82329				
623	0.6732299999999999				
624	0.50116				
625	0.35433				
626	0.24350000000000002				
627	0.16313				
628	0.1114				
629	0.08071999999999999				
630	0.0596				
631	0.046				
632	0.0371				
633	0.03105				
634	0.02711				
635	0.02451				
636	0.022850000000000002				
637	0.021840000000000002				
638	0.021629999999999996				
639	0.022099999999999998				
640	0.02307				
641	0.02512				
642	0.02798				
643	0.032029999999999996				
644	0.037469999999999996				
645	0.04605000000000001				
646	0.05777				
647	0.07724				
648	0.1039				
649	0.14354				
650	0.19986				
651	0.2808				
652	0.38515				
653	0.50745				
654	0.6599299999999999				
655	0.81322				
656	0.9205800000000001				
657	0.9579900000000001				
658	0.94428				
659	0.9234				
660	0.91593				
661	0.92803				
662	0.9488599999999999				
663	0.96698				
664	0.9785200000000001				
665	0.97527				
666	0.96089				
667	0.9456100000000001				
668	0.93233				
669	0.92622				
670	0.92916				
671	0.93808				
672	0.9536100000000001				
673	0.96855				
674	0.97721				
675	0.98086				
676	0.97573				
677	0.96525				
678	0.95104				
679	0.9393699999999999				
680	0.93431				
681	0.93375				
682	0.93955				
683	0.9484				
684	0.9618300000000001				
685	0.9717100000000001				
686	0.98095				
687	0.98491				
688	0.98238				
689	0.97547				
690	0.9656399999999999				
691	0.9540500000000001				
692	0.9460999999999999				
693	0.94085				
694	0.93955				
695	0.94377				
696	0.9509099999999999				
697	0.96197				
698	0.9742400000000001				
699	0.9806999999999999				
700	0.98381				
701	0.98083				
702	0.9737				
703	0.96411				
704	0.95466				
705	0.94735				
706	0.94388				
707	0.94408				
708	0.94849				
709	0.9573900000000001				
710	0.9670099999999999				
711	0.97356				
712	0.9797199999999999				
713	0.97763				
714	0.9712999999999999				
715	0.96048				
716	0.95011				
717	0.9372799999999999				
718	0.92876				
719	0.92416				
720	0.92506				
721	0.93057				
722	0.93839				
723	0.94868				
724	0.9581000000000001				
725	0.9658199999999999				
726	0.9693200000000001				
727	0.97045				
728	0.9695699999999999				
729	0.9673099999999999				
730	0.96431				
731	0.9618099999999999				
732	0.9620799999999999				
733	0.96124				
734	0.9619				
735	0.9616				
736	0.95946				
737	0.9568000000000001				
738	0.953				
739	0.95127				
740	0.9515399999999999				
741	0.95408				
742	0.95825				
743	0.9613200000000001				
744	0.9598099999999999				
745	0.95133				
746	0.9400400000000001				
747	0.92803				
748	0.92089				
749	0.9131199999999999				
750	0.877				
751	0.7964				
752	0.67902				
753	0.5878099999999999				
754	0.52737				
755	0.49466				
756	0.47125				
757	0.44699				
758	0.42066000000000003				
759	0.39859				
760	0.38297				
761	0.37915999999999994				
762	0.38986				
763	0.41267000000000004				
764	0.43615000000000004				
765	0.42185				
766	0.34857				
767	0.24484999999999998				
768	0.14704				
769	0.08073999999999999				
770	0.04482				
771	0.026770000000000002				
772	0.01638				
773	0.01044				
774	0.00705				
775	0.00482				
776	0.0034000000000000002				
777	0.00252				
778	0.00185				
779	0.00149				
780	0.00115				
781	0.00095				
782	0.00079				
783	0.00064				
784	0.00061				
785	0.0005099999999999999				
786	0.00043999999999999996				
787	0.00039				
788	0.00035999999999999997				
789	0.00039				
790	0.0003				
791	0.00026				
792	0.00021999999999999998				
793	0.00024				
794	0.00025				
795	0.00017999999999999998				
796	0.00023				
797	0.00012				
798	6e-05				
799	4e-05				
800	2e-05				
801	5e-05				
802	5e-05				
803	3e-05				
804	2e-05				
805	2e-05				
806	3e-05				
807	4e-05				
808	7.000000000000001e-05				
809	1e-05				
810	5e-05				
811	4e-05				
812	1e-05				
813	2e-05				
814	2e-05				
815	2e-05				
816	3e-05				
817	8e-05				
818	2e-05				
819	2e-05				
820	2e-05				
821	2e-05				
822	0.0				
823	3e-05				
824	5e-05				
825	3e-05				
826	4e-05				
827	2e-05				
828	5e-05				
829	7.000000000000001e-05				
830	3e-05				
831	3e-05				
832	5e-05				
833	4e-05				
834	4e-05				
835	5e-05				
836	8e-05				
837	4e-05				
838	8e-05				
839	8e-05				
840	8.999999999999999e-05				
841	6e-05				
842	0.00012				
843	0.00016				
844	0.00016				
845	0.00021999999999999998				
846	0.00021999999999999998				
847	0.00031				
848	0.00031				
849	0.00037999999999999997				
850	0.00048				
