Wavelength	Transmittance	hex_color	Manufacturer	Name	Filter Number
380	0.12215999999999999	#838383	Chroma	Unnamed	ZT405/488rpc
381	0.07179				
382	0.028069999999999998				
383	0.07776				
384	0.15412				
385	0.16177				
386	0.17736000000000002				
387	0.11573				
388	0.08435000000000001				
389	0.17159				
390	0.22927				
391	0.09752000000000001				
392	0.04152				
393	0.05355000000000001				
394	0.25117				
395	0.10824				
396	0.03094				
397	0.011470000000000001				
398	0.006059999999999999				
399	0.005809999999999999				
400	0.013779999999999999				
401	0.01047				
402	0.005370000000000001				
403	0.00579				
404	0.01341				
405	0.01322				
406	0.0060999999999999995				
407	0.00446				
408	0.00911				
409	0.01374				
410	0.00813				
411	0.0051400000000000005				
412	0.0049499999999999995				
413	0.00759				
414	0.01756				
415	0.06				
416	0.20567				
417	0.39399999999999996				
418	0.47018				
419	0.65643				
420	0.8864700000000001				
421	0.92571				
422	0.93779				
423	0.94235				
424	0.94272				
425	0.9498300000000001				
426	0.95574				
427	0.95905				
428	0.9645				
429	0.9660500000000001				
430	0.95989				
431	0.96167				
432	0.97053				
433	0.96236				
434	0.95307				
435	0.9593				
436	0.97347				
437	0.96723				
438	0.95588				
439	0.9650799999999999				
440	0.9736400000000001				
441	0.9598				
442	0.9487000000000001				
443	0.95732				
444	0.96954				
445	0.96458				
446	0.96026				
447	0.96753				
448	0.97421				
449	0.9629800000000001				
450	0.95012				
451	0.95462				
452	0.9692700000000001				
453	0.97152				
454	0.95819				
455	0.9503499999999999				
456	0.95777				
457	0.9617				
458	0.95678				
459	0.95345				
460	0.96146				
461	0.9720799999999999				
462	0.9728				
463	0.9709300000000001				
464	0.97557				
465	0.97744				
466	0.96518				
467	0.9431499999999999				
468	0.9377				
469	0.94881				
470	0.96691				
471	0.9656				
472	0.94794				
473	0.94682				
474	0.96529				
475	0.9564				
476	0.91211				
477	0.90319				
478	0.9043899999999999				
479	0.6292300000000001				
480	0.26132				
481	0.08737				
482	0.031139999999999998				
483	0.0137				
484	0.00753				
485	0.00484				
486	0.00362				
487	0.00313				
488	0.00295				
489	0.00321				
490	0.00392				
491	0.00547				
492	0.00782				
493	0.013959999999999998				
494	0.02846				
495	0.06891				
496	0.17651				
497	0.34369				
498	0.45577				
499	0.48123				
500	0.52154				
501	0.68242				
502	0.88679				
503	0.94592				
504	0.95503				
505	0.96327				
506	0.9641				
507	0.96758				
508	0.9797499999999999				
509	0.9864700000000001				
510	0.98027				
511	0.97005				
512	0.96461				
513	0.97101				
514	0.98251				
515	0.98651				
516	0.9782				
517	0.96551				
518	0.96088				
519	0.9677500000000001				
520	0.97855				
521	0.98331				
522	0.97611				
523	0.9660500000000001				
524	0.95553				
525	0.9546399999999999				
526	0.9632999999999999				
527	0.97441				
528	0.97744				
529	0.96914				
530	0.95435				
531	0.94352				
532	0.94123				
533	0.94939				
534	0.96149				
535	0.97				
536	0.9681399999999999				
537	0.9580500000000001				
538	0.94635				
539	0.9395				
540	0.94095				
541	0.94824				
542	0.95929				
543	0.96851				
544	0.9715600000000001				
545	0.9675400000000001				
546	0.96109				
547	0.9558599999999999				
548	0.9550700000000001				
549	0.9586199999999999				
550	0.96555				
551	0.9751099999999999				
552	0.9804900000000001				
553	0.97952				
554	0.9747				
555	0.96736				
556	0.9605400000000001				
557	0.9576699999999999				
558	0.95855				
559	0.96354				
560	0.97194				
561	0.97824				
562	0.98248				
563	0.9811799999999999				
564	0.97575				
565	0.9686100000000001				
566	0.96327				
567	0.9608599999999999				
568	0.9634199999999999				
569	0.96856				
570	0.97544				
571	0.9797				
572	0.9793999999999999				
573	0.97181				
574	0.96125				
575	0.95051				
576	0.9428				
577	0.94089				
578	0.9456100000000001				
579	0.95744				
580	0.96825				
581	0.97531				
582	0.97356				
583	0.96417				
584	0.95119				
585	0.93855				
586	0.93104				
587	0.93104				
588	0.93766				
589	0.9509000000000001				
590	0.9670099999999999				
591	0.97799				
592	0.97962				
593	0.9740800000000001				
594	0.96458				
595	0.95562				
596	0.95107				
597	0.95217				
598	0.95825				
599	0.9669599999999999				
600	0.97679				
601	0.98099				
602	0.97943				
603	0.97307				
604	0.9634900000000001				
605	0.95417				
606	0.9483799999999999				
607	0.9481499999999999				
608	0.9525100000000001				
609	0.96075				
610	0.9704200000000001				
611	0.97875				
612	0.98336				
613	0.9830500000000001				
614	0.97796				
615	0.97175				
616	0.96515				
617	0.96001				
618	0.95736				
619	0.95929				
620	0.96331				
621	0.9682999999999999				
622	0.97329				
623	0.97722				
624	0.9802299999999999				
625	0.982				
626	0.98206				
627	0.98158				
628	0.97981				
629	0.97887				
630	0.97773				
631	0.9756900000000001				
632	0.9732999999999999				
633	0.9697				
634	0.96702				
635	0.9644400000000001				
636	0.9625199999999999				
637	0.96068				
638	0.9582599999999999				
639	0.95777				
640	0.95806				
641	0.95646				
642	0.95625				
643	0.9566899999999999				
644	0.9572700000000001				
645	0.96056				
646	0.96398				
647	0.9681799999999999				
648	0.97217				
649	0.97677				
650	0.9811				
651	0.98233				
652	0.98166				
653	0.97882				
654	0.97404				
655	0.96909				
656	0.9640000000000001				
657	0.95926				
658	0.9563200000000001				
659	0.9534				
660	0.9525				
661	0.9519799999999999				
662	0.95097				
663	0.9509399999999999				
664	0.95006				
665	0.94955				
666	0.9495399999999999				
667	0.95113				
668	0.95365				
669	0.95848				
670	0.96446				
671	0.9688599999999999				
672	0.97315				
673	0.97437				
674	0.97257				
675	0.96635				
676	0.9604				
677	0.9519799999999999				
678	0.94261				
679	0.9347799999999999				
680	0.92865				
681	0.92732				
682	0.92793				
683	0.93206				
684	0.9384600000000001				
685	0.94599				
686	0.9533499999999999				
687	0.95781				
688	0.9599				
689	0.95992				
690	0.95627				
691	0.9511499999999999				
692	0.94349				
693	0.93699				
694	0.93149				
695	0.92559				
696	0.92124				
697	0.92035				
698	0.9201999999999999				
699	0.9228799999999999				
700	0.92622				
701	0.93292				
702	0.94098				
703	0.9492700000000001				
704	0.95721				
705	0.96497				
706	0.9697499999999999				
707	0.97381				
708	0.9749899999999999				
709	0.97295				
710	0.96746				
711	0.9607399999999999				
712	0.9517100000000001				
713	0.94098				
714	0.9323699999999999				
715	0.92661				
716	0.9230800000000001				
717	0.92322				
718	0.92651				
719	0.93112				
720	0.93944				
721	0.9480500000000001				
722	0.95532				
723	0.9614499999999999				
724	0.9664				
725	0.96905				
726	0.96735				
727	0.96261				
728	0.9554699999999999				
729	0.94789				
730	0.94081				
731	0.93509				
732	0.93029				
733	0.9275				
734	0.92578				
735	0.92432				
736	0.9234600000000001				
737	0.9218999999999999				
738	0.92188				
739	0.9214600000000001				
740	0.92169				
741	0.92381				
742	0.92708				
743	0.93239				
744	0.94066				
745	0.9487000000000001				
746	0.9576300000000001				
747	0.96111				
748	0.95872				
749	0.94646				
750	0.9267700000000001				
