Wavelength	Transmittance	hex_color	Manufacturer	Name	Filter Number
380	0.0576	#838383	Chroma	Unnamed	ZT532dcrb
381	0.03471				
382	0.00451				
383	0.00189				
384	0.00117				
385	0.0013				
386	0.0019500000000000001				
387	0.0028199999999999996				
388	0.0038				
389	0.00579				
390	0.01228				
391	0.04217				
392	0.14901999999999999				
393	0.31562				
394	0.44338				
395	0.5676599999999999				
396	0.74976				
397	0.8819199999999999				
398	0.9220900000000001				
399	0.93233				
400	0.94113				
401	0.9448799999999999				
402	0.94411				
403	0.94958				
404	0.9560299999999999				
405	0.9559300000000001				
406	0.95733				
407	0.96152				
408	0.96358				
409	0.9621299999999999				
410	0.95998				
411	0.9615				
412	0.96524				
413	0.96851				
414	0.96354				
415	0.95894				
416	0.9626				
417	0.96637				
418	0.9682299999999999				
419	0.96056				
420	0.95614				
421	0.9617600000000001				
422	0.96976				
423	0.96399				
424	0.95297				
425	0.94973				
426	0.95695				
427	0.9653400000000001				
428	0.9599899999999999				
429	0.9458				
430	0.94045				
431	0.94841				
432	0.9591				
433	0.96348				
434	0.95307				
435	0.9485399999999999				
436	0.9526300000000001				
437	0.96256				
438	0.96988				
439	0.96772				
440	0.9626399999999999				
441	0.96138				
442	0.96635				
443	0.9704699999999999				
444	0.9736				
445	0.97198				
446	0.9696899999999999				
447	0.96631				
448	0.96947				
449	0.97304				
450	0.9728				
451	0.97253				
452	0.97299				
453	0.9741599999999999				
454	0.97259				
455	0.9736100000000001				
456	0.97588				
457	0.97661				
458	0.9749099999999999				
459	0.97284				
460	0.9703700000000001				
461	0.96961				
462	0.97187				
463	0.97386				
464	0.97185				
465	0.96933				
466	0.9684900000000001				
467	0.9686100000000001				
468	0.97038				
469	0.97124				
470	0.97055				
471	0.97165				
472	0.97073				
473	0.97088				
474	0.97044				
475	0.97394				
476	0.97626				
477	0.97822				
478	0.9767600000000001				
479	0.9771299999999999				
480	0.9759699999999999				
481	0.9740800000000001				
482	0.97234				
483	0.97235				
484	0.9744499999999999				
485	0.97724				
486	0.9773999999999999				
487	0.97587				
488	0.97352				
489	0.9704999999999999				
490	0.9702				
491	0.9712999999999999				
492	0.9736899999999999				
493	0.97418				
494	0.97246				
495	0.96943				
496	0.96698				
497	0.96782				
498	0.96974				
499	0.97284				
500	0.97402				
501	0.9699599999999999				
502	0.9629000000000001				
503	0.9576399999999999				
504	0.96032				
505	0.9651099999999999				
506	0.97234				
507	0.9752500000000001				
508	0.97312				
509	0.97155				
510	0.97399				
511	0.97811				
512	0.97419				
513	0.96131				
514	0.94568				
515	0.94162				
516	0.92033				
517	0.8232599999999999				
518	0.63542				
519	0.40531999999999996				
520	0.23268				
521	0.1204				
522	0.06452				
523	0.03671				
524	0.023370000000000002				
525	0.01644				
526	0.01228				
527	0.00985				
528	0.00838				
529	0.00755				
530	0.00718				
531	0.0072299999999999994				
532	0.0076				
533	0.00835				
534	0.00971				
535	0.01194				
536	0.01546				
537	0.02108				
538	0.03118				
539	0.04961				
540	0.08397				
541	0.14329				
542	0.24242999999999998				
543	0.3629				
544	0.4548				
545	0.5114				
546	0.55552				
547	0.66092				
548	0.82005				
549	0.91985				
550	0.93955				
551	0.94133				
552	0.95517				
553	0.9678100000000001				
554	0.96584				
555	0.94997				
556	0.93664				
557	0.93245				
558	0.9414				
559	0.9577800000000001				
560	0.97257				
561	0.9820300000000001				
562	0.97634				
563	0.96304				
564	0.94929				
565	0.94085				
566	0.94132				
567	0.95175				
568	0.96209				
569	0.97312				
570	0.97931				
571	0.9771500000000001				
572	0.97211				
573	0.96572				
574	0.9615				
575	0.96378				
576	0.96747				
577	0.9722799999999999				
578	0.9771599999999999				
579	0.9791200000000001				
580	0.9783499999999999				
581	0.97616				
582	0.97002				
583	0.9638599999999999				
584	0.9606600000000001				
585	0.96161				
586	0.96649				
587	0.97237				
588	0.97828				
589	0.9810099999999999				
590	0.97942				
591	0.97777				
592	0.97274				
593	0.9664400000000001				
594	0.9612999999999999				
595	0.95977				
596	0.96148				
597	0.9649599999999999				
598	0.97064				
599	0.97651				
600	0.9808100000000001				
601	0.9828199999999999				
602	0.98099				
603	0.97455				
604	0.96893				
605	0.96421				
606	0.9621999999999999				
607	0.9626				
608	0.96551				
609	0.96977				
610	0.97359				
611	0.97892				
612	0.98188				
613	0.9813200000000001				
614	0.9798				
615	0.97419				
616	0.97051				
617	0.9673				
618	0.96509				
619	0.9662099999999999				
620	0.96772				
621	0.97125				
622	0.97796				
623	0.98241				
624	0.985				
625	0.98615				
626	0.9849800000000001				
627	0.98304				
628	0.9786400000000001				
629	0.97434				
630	0.9741				
631	0.9725				
632	0.9726300000000001				
633	0.9755800000000001				
634	0.9786199999999999				
635	0.98003				
636	0.98188				
637	0.9838				
638	0.98351				
639	0.98249				
640	0.9805800000000001				
641	0.97816				
642	0.9748600000000001				
643	0.9748300000000001				
644	0.97273				
645	0.97336				
646	0.97577				
647	0.9744799999999999				
648	0.97488				
649	0.97777				
650	0.9786400000000001				
651	0.97869				
652	0.9770099999999999				
653	0.97578				
654	0.97443				
655	0.97167				
656	0.97003				
657	0.97017				
658	0.97048				
659	0.97214				
660	0.9734099999999999				
661	0.97611				
662	0.97836				
663	0.97896				
664	0.9813500000000001				
665	0.9828600000000001				
666	0.98209				
667	0.97993				
668	0.9794499999999999				
669	0.9798300000000001				
670	0.9775400000000001				
671	0.97492				
672	0.97515				
673	0.97367				
674	0.97541				
675	0.97816				
676	0.9793000000000001				
677	0.98332				
678	0.9837				
679	0.98315				
680	0.9832899999999999				
681	0.98066				
682	0.98233				
683	0.98047				
684	0.97866				
685	0.9777800000000001				
686	0.9756				
687	0.97557				
688	0.9758499999999999				
689	0.97642				
690	0.9773900000000001				
691	0.97589				
692	0.97812				
693	0.9792000000000001				
694	0.97946				
695	0.9780599999999999				
696	0.97815				
697	0.97879				
698	0.9808				
699	0.9814499999999999				
700	0.9827400000000001				
701	0.98307				
702	0.98205				
703	0.9810800000000001				
704	0.98115				
705	0.982				
706	0.98051				
707	0.9781399999999999				
708	0.9778199999999999				
709	0.97774				
710	0.97859				
711	0.9782500000000001				
712	0.97813				
713	0.9775100000000001				
714	0.97776				
715	0.98016				
716	0.98137				
717	0.9826600000000001				
718	0.9848399999999999				
719	0.9856900000000001				
720	0.98603				
721	0.98653				
722	0.9851800000000001				
723	0.9840000000000001				
724	0.9823099999999999				
725	0.9815				
726	0.9801099999999999				
727	0.97774				
728	0.97674				
729	0.9767100000000001				
730	0.97678				
731	0.9764499999999999				
732	0.9764				
733	0.97623				
734	0.9764400000000001				
735	0.97785				
736	0.9793000000000001				
737	0.97914				
738	0.9797100000000001				
739	0.97989				
740	0.98099				
741	0.98151				
742	0.98044				
743	0.97985				
744	0.9797				
745	0.9764700000000001				
746	0.97469				
747	0.97363				
748	0.9720300000000001				
749	0.9725				
750	0.9749099999999999				
751	0.97444				
752	0.97526				
753	0.97687				
754	0.9783				
755	0.9802500000000001				
756	0.98015				
757	0.9804999999999999				
758	0.97902				
759	0.97917				
760	0.97944				
761	0.9776600000000001				
762	0.97576				
763	0.97319				
764	0.9727800000000001				
765	0.9715				
766	0.97				
767	0.97015				
768	0.97068				
769	0.97224				
770	0.97229				
771	0.97332				
772	0.9754999999999999				
773	0.97712				
774	0.97667				
775	0.97845				
776	0.977				
777	0.97418				
778	0.97304				
779	0.97114				
780	0.97043				
781	0.9684999999999999				
782	0.96677				
783	0.9662099999999999				
784	0.96454				
785	0.96285				
786	0.9613200000000001				
787	0.96012				
788	0.9602299999999999				
789	0.9594799999999999				
790	0.9600799999999999				
791	0.9610500000000001				
792	0.9622799999999999				
793	0.9644799999999999				
794	0.96375				
795	0.96482				
796	0.9665900000000001				
797	0.96773				
798	0.96839				
799	0.9665699999999999				
800	0.9625499999999999				
801	0.9614199999999999				
802	0.9588				
803	0.9569				
804	0.95574				
805	0.95298				
806	0.95101				
807	0.9494499999999999				
808	0.9483499999999999				
809	0.94619				
810	0.9438200000000001				
811	0.9442499999999999				
812	0.9433799999999999				
813	0.9433199999999999				
814	0.9414				
815	0.94098				
816	0.94171				
817	0.94369				
818	0.94235				
819	0.9439799999999999				
820	0.9438500000000001				
821	0.9444499999999999				
822	0.94441				
823	0.94771				
824	0.9479900000000001				
825	0.94758				
826	0.94542				
827	0.94651				
828	0.94655				
829	0.94523				
830	0.94389				
831	0.94171				
832	0.93842				
833	0.9360200000000001				
834	0.93227				
835	0.9271299999999999				
836	0.92144				
837	0.9162699999999999				
838	0.91116				
839	0.90736				
840	0.90215				
841	0.8985500000000001				
842	0.8936				
843	0.88958				
844	0.88926				
845	0.88795				
846	0.8877200000000001				
847	0.88751				
848	0.8886				
849	0.89176				
850	0.89556				
851	0.9026900000000001				
852	0.90975				
853	0.91514				
854	0.91929				
855	0.9267700000000001				
856	0.9301699999999999				
857	0.93133				
858	0.93241				
859	0.93049				
860	0.9258				
861	0.92018				
862	0.91062				
863	0.8990300000000001				
864	0.88625				
865	0.87099				
866	0.85649				
867	0.8440099999999999				
868	0.8329000000000001				
869	0.81919				
870	0.8093				
871	0.80172				
872	0.7962600000000001				
873	0.79121				
874	0.79024				
875	0.79366				
876	0.79946				
877	0.8065000000000001				
878	0.81557				
879	0.82825				
880	0.84072				
881	0.85501				
882	0.8708400000000001				
883	0.8832599999999999				
884	0.89558				
885	0.90447				
886	0.91314				
887	0.91774				
888	0.91632				
889	0.91092				
890	0.90298				
891	0.88876				
892	0.8717				
893	0.85161				
894	0.8313200000000001				
895	0.80821				
896	0.78647				
897	0.76485				
898	0.7452				
899	0.72834				
900	0.7139700000000001				
