Wavelength	Transmittance	hex_color	Manufacturer	Name	Filter Number
380	0.08827	#838383	Chroma	Unnamed	ZT488/532rpc
381	0.10372999999999999				
382	0.12521000000000002				
383	0.1524				
384	0.13584				
385	0.13273				
386	0.14634				
387	0.14587999999999998				
388	0.086				
389	0.02508				
390	0.0109				
391	0.01955				
392	0.02874				
393	0.04654				
394	0.09981999999999999				
395	0.14751				
396	0.17082999999999998				
397	0.12316				
398	0.038149999999999996				
399	0.00805				
400	0.028759999999999997				
401	0.05395				
402	0.03618				
403	0.01381				
404	0.014150000000000001				
405	0.01944				
406	0.04605000000000001				
407	0.11187				
408	0.12247				
409	0.07787				
410	0.07647				
411	0.14376				
412	0.15675				
413	0.09273999999999999				
414	0.06541000000000001				
415	0.12096				
416	0.1973				
417	0.28773				
418	0.37948				
419	0.34738				
420	0.19203				
421	0.09051999999999999				
422	0.10717				
423	0.16287				
424	0.21072				
425	0.2912				
426	0.30935				
427	0.17257999999999998				
428	0.09208				
429	0.16521				
430	0.1906				
431	0.08032				
432	0.01473				
433	0.00906				
434	0.02112				
435	0.07595				
436	0.13952				
437	0.12498				
438	0.08981				
439	0.13027				
440	0.16504000000000002				
441	0.10098000000000001				
442	0.03807				
443	0.03013				
444	0.07131				
445	0.16384				
446	0.23029				
447	0.18503				
448	0.10313				
449	0.06622				
450	0.058410000000000004				
451	0.05801				
452	0.06538000000000001				
453	0.07214999999999999				
454	0.06753				
455	0.06022				
456	0.09329000000000001				
457	0.21262				
458	0.31288				
459	0.21201				
460	0.07435				
461	0.033460000000000004				
462	0.045309999999999996				
463	0.11676				
464	0.25078				
465	0.35422				
466	0.39488999999999996				
467	0.41707				
468	0.45964				
469	0.47912				
470	0.36715000000000003				
471	0.25032				
472	0.32658000000000004				
473	0.44516				
474	0.32131				
475	0.11592000000000001				
476	0.060430000000000005				
477	0.11979				
478	0.2306				
479	0.18259				
480	0.058789999999999995				
481	0.00887				
482	0.00336				
483	0.002				
484	0.00169				
485	0.0015199999999999999				
486	0.00169				
487	0.0020599999999999998				
488	0.0027800000000000004				
489	0.00451				
490	0.00908				
491	0.0236				
492	0.06637				
493	0.17552				
494	0.3427				
495	0.48154				
496	0.6029800000000001				
497	0.7988500000000001				
498	0.93955				
499	0.96446				
500	0.97687				
501	0.98247				
502	0.9810599999999999				
503	0.98469				
504	0.9867100000000001				
505	0.98387				
506	0.98697				
507	0.9876999999999999				
508	0.98724				
509	0.9845099999999999				
510	0.9817400000000001				
511	0.9863200000000001				
512	0.9899				
513	0.9896699999999999				
514	0.98297				
515	0.9774200000000001				
516	0.97725				
517	0.9773900000000001				
518	0.9741				
519	0.97197				
520	0.97544				
521	0.9834999999999999				
522	0.98224				
523	0.9737399999999999				
524	0.9714499999999999				
525	0.94298				
526	0.79277				
527	0.53216				
528	0.28633				
529	0.14263				
530	0.07873999999999999				
531	0.04539				
532	0.0298				
533	0.022019999999999998				
534	0.01784				
535	0.01579				
536	0.015309999999999999				
537	0.01601				
538	0.01836				
539	0.02314				
540	0.03241				
541	0.04896				
542	0.08256999999999999				
543	0.15156				
544	0.26153				
545	0.41068				
546	0.56042				
547	0.7015600000000001				
548	0.8384900000000001				
549	0.93594				
550	0.97001				
551	0.98089				
552	0.98894				
553	0.98944				
554	0.9841500000000001				
555	0.98194				
556	0.98595				
557	0.9927800000000001				
558	0.99413				
559	0.9883700000000001				
560	0.97938				
561	0.9727899999999999				
562	0.9721599999999999				
563	0.97799				
564	0.9865				
565	0.99146				
566	0.9921899999999999				
567	0.98842				
568	0.98425				
569	0.98363				
570	0.98787				
571	0.99298				
572	0.9951000000000001				
573	0.99367				
574	0.98809				
575	0.98193				
576	0.981				
577	0.98238				
578	0.9859399999999999				
579	0.99152				
580	0.9945099999999999				
581	0.993				
582	0.9869499999999999				
583	0.98182				
584	0.97792				
585	0.9779399999999999				
586	0.98154				
587	0.98586				
588	0.9887699999999999				
589	0.98693				
590	0.98138				
591	0.97411				
592	0.96824				
593	0.96406				
594	0.96028				
595	0.96269				
596	0.9687399999999999				
597	0.97587				
598	0.98012				
599	0.98138				
600	0.98433				
601	0.98355				
602	0.9853799999999999				
603	0.9860500000000001				
604	0.98681				
605	0.98875				
606	0.9904600000000001				
607	0.99095				
608	0.9897499999999999				
609	0.9902500000000001				
610	0.98978				
611	0.98869				
612	0.9883799999999999				
613	0.98872				
614	0.99182				
615	0.99058				
616	0.99032				
617	0.99064				
618	0.9893500000000001				
619	0.98759				
620	0.98587				
621	0.9854600000000001				
622	0.987				
623	0.9890399999999999				
624	0.99063				
625	0.9894700000000001				
626	0.98801				
627	0.9885299999999999				
628	0.98882				
629	0.98859				
630	0.9882				
631	0.98839				
632	0.98795				
633	0.9873999999999999				
634	0.98797				
635	0.98626				
636	0.9865				
637	0.98801				
638	0.98995				
639	0.99088				
640	0.98994				
641	0.9875700000000001				
642	0.9836100000000001				
643	0.97885				
644	0.97414				
645	0.97131				
646	0.9703700000000001				
647	0.9743600000000001				
648	0.97896				
649	0.98572				
650	0.9906900000000001				
651	0.9941200000000001				
652	0.99155				
653	0.99016				
654	0.9874299999999999				
655	0.9843600000000001				
656	0.98303				
657	0.9852299999999999				
658	0.98747				
659	0.98194				
660	0.95249				
661	0.87227				
662	0.75				
663	0.6181300000000001				
664	0.50583				
665	0.42266				
666	0.35347				
667	0.29521000000000003				
668	0.24028				
669	0.18907				
670	0.14178000000000002				
671	0.10557				
672	0.07807				
673	0.05714				
674	0.043120000000000006				
675	0.03211				
676	0.02469				
677	0.01981				
678	0.01633				
679	0.01366				
680	0.011850000000000001				
681	0.01056				
682	0.00963				
683	0.00909				
684	0.00868				
685	0.00852				
686	0.00863				
687	0.00892				
688	0.00957				
689	0.01047				
690	0.01191				
691	0.01398				
692	0.01711				
693	0.021560000000000003				
694	0.02851				
695	0.039689999999999996				
696	0.05572				
697	0.07591				
698	0.09516999999999999				
699	0.10047				
700	0.08907				
701	0.06891				
702	0.05235				
703	0.04				
704	0.03193				
705	0.027290000000000002				
706	0.02426				
707	0.02267				
708	0.022010000000000002				
709	0.02237				
710	0.02368				
711	0.026080000000000002				
712	0.02952				
713	0.03443				
714	0.04137				
715	0.04933				
716	0.05811				
717	0.062119999999999995				
718	0.0605				
719	0.053529999999999994				
720	0.04336				
721	0.03344				
722	0.02596				
723	0.02084				
724	0.01719				
725	0.01473				
726	0.013000000000000001				
727	0.012				
728	0.0113				
729	0.011080000000000001				
730	0.01123				
731	0.01164				
732	0.01246				
733	0.0138				
734	0.01585				
735	0.01859				
736	0.022480000000000003				
737	0.02775				
738	0.03506				
739	0.04366				
740	0.05409				
741	0.06285				
742	0.06907				
743	0.07203999999999999				
744	0.07229000000000001				
745	0.07104				
746	0.06959				
747	0.0693				
748	0.07106				
749	0.07594000000000001				
750	0.08685000000000001				
751	0.10443				
752	0.13694				
753	0.19128				
754	0.28381				
755	0.39521				
756	0.47068				
757	0.44555				
758	0.28583				
759	0.14643				
760	0.08224999999999999				
761	0.054459999999999995				
762	0.038060000000000004				
763	0.028980000000000002				
764	0.023399999999999997				
765	0.01939				
766	0.01665				
767	0.0146				
768	0.013260000000000001				
769	0.012119999999999999				
770	0.011319999999999998				
771	0.010740000000000001				
772	0.01022				
773	0.00981				
774	0.00947				
775	0.00916				
776	0.00895				
777	0.00886				
778	0.00874				
779	0.00868				
780	0.00867				
781	0.00853				
782	0.00861				
783	0.0085				
784	0.00859				
785	0.00849				
786	0.00857				
787	0.00844				
788	0.0083				
789	0.00815				
790	0.00797				
791	0.00773				
792	0.0074399999999999996				
793	0.007209999999999999				
794	0.006999999999999999				
795	0.0066300000000000005				
796	0.0064600000000000005				
797	0.00683				
798	0.00613				
799	0.0059499999999999996				
800	0.00598				
