Wavelength	Transmittance	hex_color	Manufacturer	Name	Filter Number
320	0.22986	#838383	Chroma	Unnamed	ZT355/650rpc
321	0.41689				
322	0.5803				
323	0.49203				
324	0.30463				
325	0.21099				
326	0.19081				
327	0.22225				
328	0.33077				
329	0.53192				
330	0.74378				
331	0.74705				
332	0.57931				
333	0.44064				
334	0.39206				
335	0.40869				
336	0.48275				
337	0.5640999999999999				
338	0.55614				
339	0.4575				
340	0.34557000000000004				
341	0.25				
342	0.17556000000000002				
343	0.10816				
344	0.06083				
345	0.03221				
346	0.01758				
347	0.010289999999999999				
348	0.00651				
349	0.00443				
350	0.0036				
351	0.00306				
352	0.0025700000000000002				
353	0.00244				
354	0.00229				
355	0.0022500000000000003				
356	0.0023699999999999997				
357	0.0027700000000000003				
358	0.00331				
359	0.0039000000000000003				
360	0.00542				
361	0.0076300000000000005				
362	0.01214				
363	0.02085				
364	0.03998				
365	0.07626000000000001				
366	0.13876				
367	0.21797				
368	0.29138000000000003				
369	0.34482999999999997				
370	0.4033				
371	0.48542				
372	0.59327				
373	0.6866800000000001				
374	0.7556999999999999				
375	0.81096				
376	0.8578100000000001				
377	0.8963899999999999				
378	0.9265000000000001				
379	0.95063				
380	0.95965				
381	0.9665699999999999				
382	0.96552				
383	0.96087				
384	0.95184				
385	0.95467				
386	0.9554300000000001				
387	0.9604				
388	0.97038				
389	0.97599				
390	0.9737699999999999				
391	0.9740300000000001				
392	0.97185				
393	0.9607800000000001				
394	0.9576699999999999				
395	0.95537				
396	0.9591200000000001				
397	0.96504				
398	0.9703400000000001				
399	0.97346				
400	0.97819				
401	0.97911				
402	0.97859				
403	0.9756100000000001				
404	0.9778				
405	0.97167				
406	0.9690000000000001				
407	0.97115				
408	0.97099				
409	0.9706199999999999				
410	0.9672700000000001				
411	0.9631000000000001				
412	0.96438				
413	0.96232				
414	0.95928				
415	0.9625400000000001				
416	0.9673900000000001				
417	0.9719599999999999				
418	0.97233				
419	0.9785699999999999				
420	0.9815200000000001				
421	0.98233				
422	0.9779300000000001				
423	0.97476				
424	0.9773900000000001				
425	0.97745				
426	0.97548				
427	0.97461				
428	0.97667				
429	0.9760800000000001				
430	0.97679				
431	0.9758				
432	0.9748699999999999				
433	0.9741				
434	0.9725				
435	0.96699				
436	0.9606600000000001				
437	0.9606999999999999				
438	0.9606399999999999				
439	0.96122				
440	0.9615699999999999				
441	0.96746				
442	0.97455				
443	0.9768000000000001				
444	0.97892				
445	0.9792700000000001				
446	0.98016				
447	0.9828				
448	0.98249				
449	0.98222				
450	0.9840800000000001				
451	0.98224				
452	0.98443				
453	0.98312				
454	0.97892				
455	0.9808499999999999				
456	0.9836100000000001				
457	0.97921				
458	0.9823099999999999				
459	0.9761799999999999				
460	0.97529				
461	0.97048				
462	0.96925				
463	0.9684699999999999				
464	0.9661799999999999				
465	0.96262				
466	0.9647				
467	0.9636100000000001				
468	0.96271				
469	0.96333				
470	0.96707				
471	0.96571				
472	0.9682599999999999				
473	0.97137				
474	0.97324				
475	0.96947				
476	0.96974				
477	0.9671500000000001				
478	0.9641				
479	0.96331				
480	0.96152				
481	0.96081				
482	0.96222				
483	0.96099				
484	0.96065				
485	0.96244				
486	0.9613200000000001				
487	0.96075				
488	0.96147				
489	0.9615300000000001				
490	0.96229				
491	0.96509				
492	0.97158				
493	0.9754				
494	0.9773000000000001				
495	0.97815				
496	0.97949				
497	0.97991				
498	0.9838				
499	0.98598				
500	0.98746				
501	0.98777				
502	0.98878				
503	0.98847				
504	0.99				
505	0.98797				
506	0.98574				
507	0.98456				
508	0.9848				
509	0.98554				
510	0.98134				
511	0.98129				
512	0.98043				
513	0.9790099999999999				
514	0.9776600000000001				
515	0.97653				
516	0.9774200000000001				
517	0.9784099999999999				
518	0.9790000000000001				
519	0.97933				
520	0.97759				
521	0.9748300000000001				
522	0.9736499999999999				
523	0.97524				
524	0.97568				
525	0.9757899999999999				
526	0.97598				
527	0.9774299999999999				
528	0.9783799999999999				
529	0.9791599999999999				
530	0.98149				
531	0.98247				
532	0.9840000000000001				
533	0.9842799999999999				
534	0.97952				
535	0.98087				
536	0.9819199999999999				
537	0.9809300000000001				
538	0.97985				
539	0.97652				
540	0.9753799999999999				
541	0.9707399999999999				
542	0.96247				
543	0.95821				
544	0.95384				
545	0.9505800000000001				
546	0.94808				
547	0.94116				
548	0.9391700000000001				
549	0.93975				
550	0.9395600000000001				
551	0.94254				
552	0.9456600000000001				
553	0.95403				
554	0.95902				
555	0.9645				
556	0.97068				
557	0.97352				
558	0.9786100000000001				
559	0.97939				
560	0.98374				
561	0.9860599999999999				
562	0.9880200000000001				
563	0.98229				
564	0.97753				
565	0.9696899999999999				
566	0.96493				
567	0.9544199999999999				
568	0.9442400000000001				
569	0.93553				
570	0.92821				
571	0.92485				
572	0.91765				
573	0.91541				
574	0.91456				
575	0.91789				
576	0.92253				
577	0.93116				
578	0.9351600000000001				
579	0.9432200000000001				
580	0.9476600000000001				
581	0.95474				
582	0.95647				
583	0.95797				
584	0.95746				
585	0.95517				
586	0.9528				
587	0.9462600000000001				
588	0.93791				
589	0.92342				
590	0.9149299999999999				
591	0.9042600000000001				
592	0.8973				
593	0.89228				
594	0.8886499999999999				
595	0.8891				
596	0.8973099999999999				
597	0.9045799999999999				
598	0.92535				
599	0.9287099999999999				
600	0.93672				
601	0.94081				
602	0.9357500000000001				
603	0.91601				
604	0.8810800000000001				
605	0.82994				
606	0.76506				
607	0.69978				
608	0.6323799999999999				
609	0.56138				
610	0.49454				
611	0.43372				
612	0.37778				
613	0.32719000000000004				
614	0.28193999999999997				
615	0.24372				
616	0.21228000000000002				
617	0.18477				
618	0.16128				
619	0.14193				
620	0.12609				
621	0.11226000000000001				
622	0.10052				
623	0.0907				
624	0.08252000000000001				
625	0.07538				
626	0.06909				
627	0.06391				
628	0.05945				
629	0.05516				
630	0.05165				
631	0.04856				
632	0.045970000000000004				
633	0.04372				
634	0.041749999999999995				
635	0.04				
636	0.03855				
637	0.03712				
638	0.03574				
639	0.034300000000000004				
640	0.03273				
641	0.03218				
642	0.031709999999999995				
643	0.03148				
644	0.03143				
645	0.031560000000000005				
646	0.0318				
647	0.03183				
648	0.03227				
649	0.03286				
650	0.03426				
651	0.03633				
652	0.03794				
653	0.039220000000000005				
654	0.040679999999999994				
655	0.04216				
656	0.04398				
657	0.046020000000000005				
658	0.04839				
659	0.05098				
660	0.05394				
661	0.057409999999999996				
662	0.06136				
663	0.06594				
664	0.07056				
665	0.07618				
666	0.08231				
667	0.08924				
668	0.09691000000000001				
669	0.10581				
670	0.11562				
671	0.12723				
672	0.13963				
673	0.15385				
674	0.17021999999999998				
675	0.18725999999999998				
676	0.20703				
677	0.22885000000000003				
678	0.25275				
679	0.27692				
680	0.30373				
681	0.33163				
682	0.36078000000000005				
683	0.38966999999999996				
684	0.4188				
685	0.44516				
686	0.47226999999999997				
687	0.5011099999999999				
688	0.52695				
689	0.55154				
690	0.57728				
691	0.60412				
692	0.62952				
693	0.65765				
694	0.6907599999999999				
695	0.72935				
696	0.76742				
697	0.8088200000000001				
698	0.8460899999999999				
699	0.88031				
700	0.9062699999999999				
701	0.92889				
702	0.9425				
703	0.94293				
704	0.9404699999999999				
705	0.93907				
706	0.9303400000000001				
707	0.92679				
708	0.9212				
709	0.91497				
710	0.90527				
711	0.90022				
712	0.89822				
713	0.8959199999999999				
714	0.90173				
715	0.90404				
716	0.90322				
717	0.90483				
718	0.9136299999999999				
719	0.91497				
720	0.91762				
721	0.9231				
722	0.93082				
723	0.9357				
724	0.94033				
725	0.94042				
726	0.9434				
727	0.9445600000000001				
728	0.94432				
729	0.94403				
730	0.94146				
731	0.94012				
732	0.93848				
733	0.9345300000000001				
734	0.9329000000000001				
735	0.9261400000000001				
736	0.92243				
737	0.91997				
738	0.9173				
739	0.9116299999999999				
740	0.90899				
741	0.9042100000000001				
742	0.90167				
743	0.8981699999999999				
744	0.89819				
745	0.89744				
746	0.9018				
747	0.90701				
748	0.90327				
749	0.90561				
750	0.90641				
