Wavelength	Transmittance	hex_color	Manufacturer	Name	Filter Number
380	0.0	#838383	Chroma	Unnamed	ZT440/488/561/635rpc
381	4e-05				
382	0.0034000000000000002				
383	0.021629999999999996				
384	0.0431				
385	0.03387				
386	0.007169999999999999				
387	0.01607				
388	0.01606				
389	0.02476				
390	0.061669999999999996				
391	0.12474				
392	0.1761				
393	0.14035				
394	0.05184999999999999				
395	0.010509999999999999				
396	0.01965				
397	0.019				
398	0.00384				
399	0.00297				
400	0.00735				
401	0.0048				
402	0.00023				
403	0.00099				
404	0.00061				
405	0.0007199999999999999				
406	0.00301				
407	0.00644				
408	0.00528				
409	0.00651				
410	0.01711				
411	0.05697				
412	0.09845000000000001				
413	0.062060000000000004				
414	0.041870000000000004				
415	0.05088				
416	0.02473				
417	0.00292				
418	0.00062				
419	0.00108				
420	0.004699999999999999				
421	0.034300000000000004				
422	0.09161				
423	0.11458				
424	0.08988				
425	0.044340000000000004				
426	0.01747				
427	0.00777				
428	0.02252				
429	0.08746000000000001				
430	0.11051				
431	0.06642				
432	0.06926				
433	0.12138				
434	0.08929000000000001				
435	0.025550000000000003				
436	0.009439999999999999				
437	0.01077				
438	0.015489999999999999				
439	0.01565				
440	0.011200000000000002				
441	0.0101				
442	0.01268				
443	0.01992				
444	0.04337				
445	0.10159000000000001				
446	0.21719999999999998				
447	0.33966999999999997				
448	0.4353				
449	0.53459				
450	0.7349				
451	0.93092				
452	0.98311				
453	0.9806100000000001				
454	0.97737				
455	0.97688				
456	0.9752200000000001				
457	0.9802299999999999				
458	0.98328				
459	0.97355				
460	0.96974				
461	0.97843				
462	0.98343				
463	0.9764499999999999				
464	0.96726				
465	0.97396				
466	0.98287				
467	0.98154				
468	0.9764700000000001				
469	0.97745				
470	0.98173				
471	0.9822799999999999				
472	0.9760500000000001				
473	0.97166				
474	0.97126				
475	0.9723099999999999				
476	0.9708100000000001				
477	0.9656699999999999				
478	0.95786				
479	0.95285				
480	0.8744299999999999				
481	0.6402599999999999				
482	0.32451				
483	0.14012				
484	0.06429				
485	0.03904				
486	0.02866				
487	0.02545				
488	0.02686				
489	0.03363				
490	0.04872				
491	0.08439				
492	0.15959				
493	0.28236				
494	0.41165				
495	0.54386				
496	0.6822400000000001				
497	0.8464499999999999				
498	0.95351				
499	0.97072				
500	0.97518				
501	0.9848300000000001				
502	0.98529				
503	0.97846				
504	0.9778600000000001				
505	0.9822				
506	0.98678				
507	0.9888899999999999				
508	0.9876900000000001				
509	0.99				
510	0.98555				
511	0.98173				
512	0.97044				
513	0.9649899999999999				
514	0.96237				
515	0.96096				
516	0.9572499999999999				
517	0.96032				
518	0.9603400000000001				
519	0.96447				
520	0.9695999999999999				
521	0.9745699999999999				
522	0.9762000000000001				
523	0.9749				
524	0.97386				
525	0.9741299999999999				
526	0.97958				
527	0.98327				
528	0.98696				
529	0.9859600000000001				
530	0.9810800000000001				
531	0.97351				
532	0.96748				
533	0.96438				
534	0.96378				
535	0.96649				
536	0.97136				
537	0.9758				
538	0.97926				
539	0.9778				
540	0.9741200000000001				
541	0.97261				
542	0.97289				
543	0.9748				
544	0.9721899999999999				
545	0.96182				
546	0.94762				
547	0.94824				
548	0.9590099999999999				
549	0.9144599999999999				
550	0.73036				
551	0.46335				
552	0.25651				
553	0.14868				
554	0.08988				
555	0.05984				
556	0.043789999999999996				
557	0.03515				
558	0.03089				
559	0.02897				
560	0.02924				
561	0.03186				
562	0.03687				
563	0.046529999999999995				
564	0.06323000000000001				
565	0.08962999999999999				
566	0.13723000000000002				
567	0.21420000000000003				
568	0.31890999999999997				
569	0.43311999999999995				
570	0.5397099999999999				
571	0.63897				
572	0.7745399999999999				
573	0.9034				
574	0.9675				
575	0.9766400000000001				
576	0.9797				
577	0.98232				
578	0.98502				
579	0.9840399999999999				
580	0.97807				
581	0.97627				
582	0.97461				
583	0.9767199999999999				
584	0.9778				
585	0.97756				
586	0.9779399999999999				
587	0.9720300000000001				
588	0.97138				
589	0.9722				
590	0.97756				
591	0.9815600000000001				
592	0.9830800000000001				
593	0.98339				
594	0.98123				
595	0.97741				
596	0.9773099999999999				
597	0.9801099999999999				
598	0.98307				
599	0.98527				
600	0.98532				
601	0.97925				
602	0.97165				
603	0.9648300000000001				
604	0.9622799999999999				
605	0.96518				
606	0.97238				
607	0.9803000000000001				
608	0.9855200000000001				
609	0.9828199999999999				
610	0.9777				
611	0.9711799999999999				
612	0.9654900000000001				
613	0.96492				
614	0.9693600000000001				
615	0.97108				
616	0.9669599999999999				
617	0.95769				
618	0.95174				
619	0.96131				
620	0.96921				
621	0.94262				
622	0.8207				
623	0.61998				
624	0.41345999999999994				
625	0.26581				
626	0.17446				
627	0.11817				
628	0.08453				
629	0.06352000000000001				
630	0.05012				
631	0.041440000000000005				
632	0.03551				
633	0.0319				
634	0.02959				
635	0.02852				
636	0.02857				
637	0.029609999999999997				
638	0.03165				
639	0.0351				
640	0.04027				
641	0.04797				
642	0.05901				
643	0.07556				
644	0.09983				
645	0.13608				
646	0.19256				
647	0.26446000000000003				
648	0.35072000000000003				
649	0.43435				
650	0.50315				
651	0.56188				
652	0.62784				
653	0.73586				
654	0.85092				
655	0.93266				
656	0.9575100000000001				
657	0.95337				
658	0.94883				
659	0.95474				
660	0.96481				
661	0.97246				
662	0.97941				
663	0.97732				
664	0.97355				
665	0.96588				
666	0.9689				
667	0.96918				
668	0.9712900000000001				
669	0.97895				
670	0.9784999999999999				
671	0.97875				
672	0.97161				
673	0.96454				
674	0.9567700000000001				
675	0.9512				
676	0.9497199999999999				
677	0.9517100000000001				
678	0.95718				
679	0.96262				
680	0.9692700000000001				
681	0.97343				
682	0.97699				
683	0.9753499999999999				
684	0.9728100000000001				
685	0.9670300000000001				
686	0.9626399999999999				
687	0.95765				
688	0.95624				
689	0.95742				
690	0.96028				
691	0.9645999999999999				
692	0.9717100000000001				
693	0.97764				
694	0.98212				
695	0.98464				
696	0.98454				
697	0.9819199999999999				
698	0.97764				
699	0.9745999999999999				
700	0.97458				
701	0.97481				
702	0.97651				
703	0.9795				
704	0.9832599999999999				
705	0.98786				
706	0.98969				
707	0.98869				
708	0.9851800000000001				
709	0.97934				
710	0.97515				
711	0.9695199999999999				
712	0.96845				
713	0.9644499999999999				
714	0.96504				
715	0.9659399999999999				
716	0.9681000000000001				
717	0.9719				
718	0.9749				
719	0.97706				
720	0.97828				
721	0.97653				
722	0.97596				
723	0.97344				
724	0.97032				
725	0.9695900000000001				
726	0.96821				
727	0.96812				
728	0.9706699999999999				
729	0.97425				
730	0.97648				
731	0.9815				
732	0.98587				
733	0.9885299999999999				
734	0.98762				
735	0.98732				
736	0.9899800000000001				
737	0.98873				
738	0.98607				
739	0.9859699999999999				
740	0.98655				
741	0.98307				
742	0.98496				
743	0.98599				
744	0.9859699999999999				
745	0.9840800000000001				
746	0.9845900000000001				
747	0.98443				
748	0.98149				
749	0.97746				
750	0.97397				
751	0.97103				
752	0.9672499999999999				
753	0.96601				
754	0.9619				
755	0.95955				
756	0.95829				
757	0.96096				
758	0.9655400000000001				
759	0.9672700000000001				
760	0.97241				
761	0.9765600000000001				
762	0.98151				
763	0.98452				
764	0.98626				
765	0.98836				
766	0.9868399999999999				
767	0.98646				
768	0.98512				
769	0.9841200000000001				
770	0.9792000000000001				
771	0.97843				
772	0.97638				
773	0.9745				
774	0.97344				
775	0.97098				
776	0.97085				
777	0.97253				
778	0.97274				
779	0.97224				
780	0.9711				
781	0.9722700000000001				
782	0.9731399999999999				
783	0.9713299999999999				
784	0.9722700000000001				
785	0.97277				
786	0.97225				
787	0.97096				
788	0.97078				
789	0.9709399999999999				
790	0.97277				
791	0.97187				
792	0.97257				
793	0.97438				
794	0.97643				
795	0.97796				
796	0.9809				
797	0.9826600000000001				
798	0.9845900000000001				
799	0.9799500000000001				
800	0.97419				
