Wavelength	Transmittance	hex_color	Manufacturer	Name	Filter Number
380	0.0	#838383	Chroma	Unnamed	89007bs
381	0.02883				
382	0.07857				
383	0.11991				
384	0.10926				
385	0.06412				
386	0.018340000000000002				
387	0.01539				
388	0.00815				
389	0.00211				
390	0.00231				
391	0.00146				
392	0.00106				
393	0.00199				
394	0.00484				
395	0.00638				
396	0.00291				
397	0.00191				
398	0.0026				
399	0.00154				
400	0.0011				
401	0.00136				
402	0.00169				
403	0.00161				
404	0.0033				
405	0.00838				
406	0.00967				
407	0.00386				
408	0.00366				
409	0.00881				
410	0.00989				
411	0.00455				
412	0.00114				
413	0.00244				
414	0.00912				
415	0.012390000000000002				
416	0.00705				
417	0.00194				
418	0.0013800000000000002				
419	0.0013700000000000001				
420	0.00084				
421	0.00089				
422	0.0014199999999999998				
423	0.00365				
424	0.00452				
425	0.00291				
426	0.00117				
427	0.00092				
428	0.00181				
429	0.00444				
430	0.0076100000000000004				
431	0.0059099999999999995				
432	0.00292				
433	0.0027400000000000002				
434	0.0049				
435	0.00807				
436	0.010209999999999999				
437	0.00942				
438	0.00877				
439	0.0097				
440	0.010740000000000001				
441	0.0103				
442	0.00988				
443	0.011120000000000001				
444	0.01433				
445	0.02051				
446	0.029289999999999997				
447	0.04255				
448	0.06756999999999999				
449	0.11469				
450	0.21703				
451	0.36294				
452	0.55558				
453	0.7754800000000001				
454	0.93159				
455	0.97006				
456	0.9724200000000001				
457	0.9716899999999999				
458	0.9732599999999999				
459	0.97584				
460	0.97764				
461	0.97423				
462	0.96965				
463	0.96714				
464	0.96577				
465	0.9644400000000001				
466	0.9671				
467	0.97258				
468	0.9783				
469	0.97816				
470	0.97787				
471	0.9781799999999999				
472	0.98001				
473	0.98002				
474	0.97895				
475	0.9788				
476	0.97587				
477	0.96827				
478	0.9587300000000001				
479	0.95025				
480	0.9355100000000001				
481	0.89923				
482	0.80789				
483	0.66872				
484	0.5170600000000001				
485	0.38925				
486	0.24936				
487	0.10255				
488	0.0455				
489	0.017230000000000002				
490	0.00795				
491	0.004719999999999999				
492	0.00262				
493	0.0019				
494	0.0012900000000000001				
495	0.0010199999999999999				
496	0.00089				
497	0.00075				
498	0.0006900000000000001				
499	0.0005899999999999999				
500	0.00063				
501	0.00061				
502	0.0006900000000000001				
503	0.00077				
504	0.00094				
505	0.00115				
506	0.0017100000000000001				
507	0.00264				
508	0.00426				
509	0.00894				
510	0.02028				
511	0.05148				
512	0.14202				
513	0.29454				
514	0.42399000000000003				
515	0.47942999999999997				
516	0.48728				
517	0.51402				
518	0.61442				
519	0.78199				
520	0.91385				
521	0.96536				
522	0.96893				
523	0.9715600000000001				
524	0.9777899999999999				
525	0.9826699999999999				
526	0.9867900000000001				
527	0.98614				
528	0.9822299999999999				
529	0.97978				
530	0.97868				
531	0.9797				
532	0.9817400000000001				
533	0.98237				
534	0.983				
535	0.9810800000000001				
536	0.97976				
537	0.97856				
538	0.97757				
539	0.9695199999999999				
540	0.9366				
541	0.82018				
542	0.60747				
543	0.35985				
544	0.16905				
545	0.08326				
546	0.04256				
547	0.02206				
548	0.01381				
549	0.00885				
550	0.00636				
551	0.0047799999999999995				
552	0.00384				
553	0.00329				
554	0.00292				
555	0.0027500000000000003				
556	0.0027300000000000002				
557	0.0027500000000000003				
558	0.00312				
559	0.0034599999999999995				
560	0.00424				
561	0.00551				
562	0.00733				
563	0.010509999999999999				
564	0.01693				
565	0.02952				
566	0.05702				
567	0.11339				
568	0.22749				
569	0.36362				
570	0.4525				
571	0.46281				
572	0.44222				
573	0.43653				
574	0.46561				
575	0.54247				
576	0.6703100000000001				
577	0.82192				
578	0.92077				
579	0.96122				
580	0.9728600000000001				
581	0.97699				
582	0.98116				
583	0.98553				
584	0.9851099999999999				
585	0.9848300000000001				
586	0.9806999999999999				
587	0.9791500000000001				
588	0.9760599999999999				
589	0.9740099999999999				
590	0.97312				
591	0.97685				
592	0.97796				
593	0.98095				
594	0.98076				
595	0.98065				
596	0.9776600000000001				
597	0.97598				
598	0.9730200000000001				
599	0.97711				
600	0.97839				
601	0.98807				
602	0.99114				
603	0.9939199999999999				
604	0.99566				
605	0.99408				
606	0.99358				
607	0.99058				
608	0.99059				
609	0.9924200000000001				
610	0.99045				
611	0.9921599999999999				
612	0.98943				
613	0.9876999999999999				
614	0.9863599999999999				
615	0.98504				
616	0.98524				
617	0.98547				
618	0.98732				
619	0.98835				
620	0.98785				
621	0.9889				
622	0.9855800000000001				
623	0.98372				
624	0.98252				
625	0.98312				
626	0.98429				
627	0.98563				
628	0.9893000000000001				
629	0.99212				
630	0.99517				
631	0.99424				
632	0.99371				
633	0.99198				
634	0.98993				
635	0.98908				
636	0.9890399999999999				
637	0.9866800000000001				
638	0.98423				
639	0.9817				
640	0.9714100000000001				
641	0.94916				
642	0.8931399999999999				
643	0.79553				
644	0.65834				
645	0.50791				
646	0.37405				
647	0.27182				
648	0.20174				
649	0.15268				
650	0.12362000000000001				
651	0.10242000000000001				
652	0.08971				
653	0.08092				
654	0.07637				
655	0.0759				
656	0.07907				
657	0.08701				
658	0.10143				
659	0.12494				
660	0.17028				
661	0.245				
662	0.35014				
663	0.47037999999999996				
664	0.58049				
665	0.58599				
666	0.40734000000000004				
667	0.21406				
668	0.13228				
669	0.09657				
670	0.0768				
671	0.06666				
672	0.06096				
673	0.05795				
674	0.05803				
675	0.06066				
676	0.06491				
677	0.06872				
678	0.07116				
679	0.07085				
680	0.06701				
681	0.05961				
682	0.05013				
683	0.04192				
684	0.03468				
685	0.029380000000000003				
686	0.025550000000000003				
687	0.023				
688	0.021179999999999997				
689	0.02035				
690	0.0203				
691	0.02106				
692	0.022770000000000002				
693	0.02606				
694	0.03077				
695	0.03968				
696	0.055170000000000004				
697	0.08816				
698	0.1505				
699	0.24264				
700	0.32597000000000004				
701	0.29315				
702	0.19466				
703	0.13672				
704	0.16140999999999997				
705	0.16776				
706	0.09231				
707	0.043440000000000006				
708	0.02825				
709	0.023250000000000003				
710	0.021				
711	0.02024				
712	0.02028				
713	0.021240000000000002				
714	0.02322				
715	0.02645				
716	0.03128				
717	0.03841				
718	0.05023				
719	0.06843				
720	0.09803				
721	0.14079				
722	0.20203				
723	0.26336				
724	0.30491				
725	0.30859000000000003				
726	0.29057				
727	0.27972				
728	0.29101				
729	0.31061				
730	0.31016				
731	0.29417000000000004				
732	0.28864				
733	0.30402999999999997				
734	0.33564				
735	0.36873				
736	0.38454				
737	0.37284				
738	0.34192				
739	0.30865				
740	0.29398				
741	0.28896				
742	0.26304				
743	0.20831				
744	0.15211				
745	0.11287000000000001				
746	0.08807999999999999				
747	0.07338				
748	0.06429				
749	0.0571				
750	0.05167				
