Wavelength	Transmittance	hex_color	Manufacturer	Name	Filter Number
380	0.0	#838383	Chroma	Unnamed	ZT458rdc
381	0.0				
382	0.0				
383	0.0				
384	0.0				
385	0.0				
386	0.0				
387	0.0				
388	0.0				
389	0.0				
390	0.0				
391	0.0				
392	0.0				
393	0.0				
394	0.0				
395	0.0				
396	2e-05				
397	0.0				
398	1e-05				
399	0.0				
400	0.0				
401	0.0				
402	4e-05				
403	0.00039				
404	0.00089				
405	0.00092				
406	0.00049				
407	0.0002				
408	0.00017999999999999998				
409	0.00023				
410	0.00043999999999999996				
411	0.001				
412	0.0022500000000000003				
413	0.00545				
414	0.00715				
415	0.00454				
416	0.0025800000000000003				
417	0.0018				
418	0.00158				
419	0.0016				
420	0.00197				
421	0.0028799999999999997				
422	0.00462				
423	0.00821				
424	0.01329				
425	0.01486				
426	0.011819999999999999				
427	0.00844				
428	0.00672				
429	0.00632				
430	0.0069299999999999995				
431	0.00878				
432	0.01287				
433	0.01628				
434	0.01558				
435	0.00988				
436	0.0058				
437	0.00322				
438	0.00203				
439	0.00145				
440	0.00122				
441	0.00106				
442	0.00098				
443	0.00092				
444	0.00097				
445	0.00105				
446	0.00122				
447	0.00151				
448	0.00183				
449	0.00218				
450	0.00263				
451	0.0032600000000000003				
452	0.0040100000000000005				
453	0.005				
454	0.00622				
455	0.0077				
456	0.00963				
457	0.011779999999999999				
458	0.01584				
459	0.022010000000000002				
460	0.03167				
461	0.04781				
462	0.07436				
463	0.11978				
464	0.19204999999999997				
465	0.28728000000000004				
466	0.3978				
467	0.49787				
468	0.60205				
469	0.75771				
470	0.88249				
471	0.92899				
472	0.9395600000000001				
473	0.94498				
474	0.95199				
475	0.95597				
476	0.96097				
477	0.9634199999999999				
478	0.96357				
479	0.9623999999999999				
480	0.9612900000000001				
481	0.95991				
482	0.95943				
483	0.96005				
484	0.96025				
485	0.95966				
486	0.9597100000000001				
487	0.9612999999999999				
488	0.96382				
489	0.96532				
490	0.9664499999999999				
491	0.96845				
492	0.97089				
493	0.97237				
494	0.9728600000000001				
495	0.9712099999999999				
496	0.97112				
497	0.96966				
498	0.97017				
499	0.97096				
500	0.97143				
501	0.9725100000000001				
502	0.97277				
503	0.9725100000000001				
504	0.9729000000000001				
505	0.97264				
506	0.97284				
507	0.97211				
508	0.97319				
509	0.9732500000000001				
510	0.97299				
511	0.9718899999999999				
512	0.97271				
513	0.97151				
514	0.97065				
515	0.96895				
516	0.96871				
517	0.96973				
518	0.97142				
519	0.97258				
520	0.97508				
521	0.9780800000000001				
522	0.9804600000000001				
523	0.9815999999999999				
524	0.9814799999999999				
525	0.98122				
526	0.98128				
527	0.97906				
528	0.9767199999999999				
529	0.9756199999999999				
530	0.97568				
531	0.9753499999999999				
532	0.9755400000000001				
533	0.97655				
534	0.9785299999999999				
535	0.9808100000000001				
536	0.98187				
537	0.98211				
538	0.98262				
539	0.98248				
540	0.98238				
541	0.9826699999999999				
542	0.98268				
543	0.98303				
544	0.98251				
545	0.98199				
546	0.9829300000000001				
547	0.9826900000000001				
548	0.983				
549	0.98321				
550	0.98378				
551	0.98378				
552	0.9839				
553	0.9841500000000001				
554	0.9830500000000001				
555	0.9819499999999999				
556	0.98129				
557	0.98111				
558	0.98194				
559	0.98162				
560	0.9813500000000001				
561	0.98176				
562	0.9819				
563	0.98346				
564	0.98366				
565	0.9837				
566	0.98297				
567	0.9826600000000001				
568	0.9813200000000001				
569	0.9814400000000001				
570	0.9820699999999999				
571	0.98238				
572	0.9817199999999999				
573	0.9827899999999999				
574	0.98289				
575	0.98307				
576	0.9834				
577	0.98324				
578	0.9843500000000001				
579	0.98402				
580	0.98489				
581	0.98452				
582	0.9843999999999999				
583	0.98395				
584	0.9837				
585	0.98301				
586	0.9829300000000001				
587	0.98275				
588	0.9808				
589	0.98044				
590	0.98003				
591	0.97935				
592	0.97917				
593	0.9786				
594	0.9778600000000001				
595	0.9780500000000001				
596	0.97757				
597	0.9773499999999999				
598	0.97654				
599	0.97765				
600	0.9773900000000001				
601	0.97699				
602	0.97733				
603	0.97896				
604	0.97942				
605	0.97946				
606	0.98017				
607	0.97994				
608	0.98051				
609	0.98043				
610	0.9819599999999999				
611	0.98179				
612	0.9817				
613	0.9821599999999999				
614	0.98138				
615	0.98099				
616	0.98141				
617	0.9818600000000001				
618	0.98221				
619	0.98181				
620	0.98229				
621	0.98218				
622	0.9824200000000001				
623	0.98248				
624	0.98285				
625	0.98304				
626	0.9831300000000001				
627	0.98284				
628	0.9811799999999999				
629	0.9799899999999999				
630	0.9792000000000001				
631	0.97765				
632	0.9767199999999999				
633	0.9768000000000001				
634	0.9757899999999999				
635	0.9751000000000001				
636	0.9758100000000001				
637	0.9767				
638	0.97792				
639	0.97897				
640	0.9806999999999999				
641	0.9802299999999999				
642	0.9819100000000001				
643	0.98252				
644	0.98208				
645	0.98176				
646	0.98104				
647	0.98066				
648	0.98015				
649	0.97851				
650	0.97711				
651	0.97474				
652	0.9721				
653	0.96946				
654	0.96842				
655	0.96787				
656	0.96737				
657	0.9664499999999999				
658	0.96624				
659	0.9675199999999999				
660	0.96782				
661	0.96844				
662	0.96833				
663	0.96895				
664	0.9694400000000001				
665	0.96855				
666	0.9673				
667	0.9664				
668	0.96477				
669	0.96352				
670	0.9616				
671	0.95881				
672	0.95672				
673	0.95505				
674	0.95414				
675	0.9522700000000001				
676	0.9508				
677	0.94988				
678	0.94633				
679	0.94432				
680	0.9396800000000001				
681	0.9326300000000001				
682	0.9244				
683	0.91306				
684	0.90077				
685	0.8852800000000001				
686	0.8671599999999999				
687	0.85008				
688	0.83344				
689	0.8130700000000001				
690	0.7966599999999999				
691	0.77986				
692	0.7654000000000001				
693	0.7508				
694	0.73646				
695	0.72624				
696	0.71625				
697	0.7070799999999999				
698	0.69798				
699	0.69214				
700	0.6861400000000001				
701	0.68254				
702	0.6783899999999999				
703	0.6776099999999999				
704	0.6785899999999999				
705	0.68226				
706	0.68704				
707	0.69304				
708	0.69931				
709	0.70317				
710	0.70317				
711	0.6953199999999999				
712	0.6793600000000001				
713	0.6506399999999999				
714	0.61487				
715	0.57724				
716	0.53905				
717	0.5019				
718	0.46436				
719	0.43698				
720	0.41679				
721	0.40196				
722	0.39216				
723	0.38728999999999997				
724	0.38709000000000005				
725	0.39354999999999996				
726	0.40407				
727	0.41881999999999997				
728	0.43923				
729	0.46633				
730	0.51186				
731	0.57266				
732	0.64837				
733	0.69336				
734	0.66675				
735	0.58899				
736	0.49223				
737	0.39719				
738	0.34037				
739	0.29904				
740	0.26389				
741	0.22923				
742	0.20439				
743	0.1833				
744	0.16479				
745	0.14892				
746	0.13724				
747	0.12907				
748	0.12325				
749	0.11901				
750	0.11726				
