Wavelength	Transmittance	hex_color	Manufacturer	Name	Filter Number
380	0.35892	#838383	Chroma	Unnamed	T610lpxr
381	0.3425				
382	0.31542000000000003				
383	0.27765				
384	0.23847000000000002				
385	0.21887				
386	0.23268999999999998				
387	0.28024				
388	0.26794				
389	0.22229				
390	0.19161				
391	0.21819				
392	0.3126				
393	0.42618				
394	0.44027				
395	0.34149999999999997				
396	0.25034				
397	0.23018999999999998				
398	0.25113				
399	0.27106				
400	0.2659				
401	0.19179				
402	0.07926				
403	0.01851				
404	0.00442				
405	0.00154				
406	0.00106				
407	0.0008699999999999999				
408	0.00053				
409	0.0006				
410	0.00063				
411	0.0007599999999999999				
412	0.00117				
413	0.00215				
414	0.0044800000000000005				
415	0.00786				
416	0.01161				
417	0.01373				
418	0.01443				
419	0.0166				
420	0.02476				
421	0.04961				
422	0.11771000000000001				
423	0.23648				
424	0.35444000000000003				
425	0.41865				
426	0.44548000000000004				
427	0.44913				
428	0.41662				
429	0.38101				
430	0.39091000000000004				
431	0.41389000000000004				
432	0.3804				
433	0.31064				
434	0.23829999999999998				
435	0.16706				
436	0.11611				
437	0.09324				
438	0.10307000000000001				
439	0.16097				
440	0.26814				
441	0.34576999999999997				
442	0.30774999999999997				
443	0.22827999999999998				
444	0.19402999999999998				
445	0.24187999999999998				
446	0.32448				
447	0.32272				
448	0.21561				
449	0.11362				
450	0.06715				
451	0.05649				
452	0.06168				
453	0.06055				
454	0.046029999999999995				
455	0.024620000000000003				
456	0.01155				
457	0.00642				
458	0.00446				
459	0.0039900000000000005				
460	0.00432				
461	0.00525				
462	0.005809999999999999				
463	0.00513				
464	0.00361				
465	0.00217				
466	0.00126				
467	0.0008100000000000001				
468	0.0007199999999999999				
469	0.0007199999999999999				
470	0.00078				
471	0.00105				
472	0.00132				
473	0.00158				
474	0.0015				
475	0.00104				
476	0.00066				
477	0.00037999999999999997				
478	0.00024				
479	0.00026				
480	0.00025				
481	0.00026				
482	0.00029				
483	0.00039				
484	0.00052				
485	0.00063				
486	0.00067				
487	0.0005099999999999999				
488	0.00032				
489	0.00023				
490	0.00016				
491	0.00013				
492	0.00013				
493	0.00016				
494	0.00021				
495	0.00025				
496	0.00035999999999999997				
497	0.00047				
498	0.00048				
499	0.00039				
500	0.00033				
501	0.00026				
502	0.00017999999999999998				
503	0.00010999999999999999				
504	0.00013				
505	0.00016				
506	0.00013				
507	0.00017999999999999998				
508	0.00027				
509	0.00035999999999999997				
510	0.00035999999999999997				
511	0.00055				
512	0.00061				
513	0.00055				
514	0.00049				
515	0.00042				
516	0.00032				
517	0.00027				
518	0.00033				
519	0.00037999999999999997				
520	0.00035999999999999997				
521	0.00041				
522	0.00043999999999999996				
523	0.00055				
524	0.00062				
525	0.00065				
526	0.0007000000000000001				
527	0.0006900000000000001				
528	0.0007000000000000001				
529	0.0007599999999999999				
530	0.0008799999999999999				
531	0.00107				
532	0.0013900000000000002				
533	0.00187				
534	0.0023799999999999997				
535	0.0027800000000000004				
536	0.0028199999999999996				
537	0.0025				
538	0.00196				
539	0.00148				
540	0.00124				
541	0.00108				
542	0.00101				
543	0.0010199999999999999				
544	0.00111				
545	0.00133				
546	0.00183				
547	0.00264				
548	0.0040100000000000005				
549	0.005889999999999999				
550	0.0072				
551	0.00712				
552	0.005679999999999999				
553	0.0041199999999999995				
554	0.00302				
555	0.00242				
556	0.00219				
557	0.00215				
558	0.00244				
559	0.00317				
560	0.00451				
561	0.00771				
562	0.014570000000000001				
563	0.02411				
564	0.0286				
565	0.02131				
566	0.01088				
567	0.0053				
568	0.00299				
569	0.00191				
570	0.0014099999999999998				
571	0.00115				
572	0.0010199999999999999				
573	0.00099				
574	0.0009299999999999999				
575	0.00091				
576	0.00092				
577	0.00098				
578	0.0011200000000000001				
579	0.00128				
580	0.00146				
581	0.0017399999999999998				
582	0.00221				
583	0.0028699999999999997				
584	0.00364				
585	0.0048				
586	0.00631				
587	0.00819				
588	0.01038				
589	0.0127				
590	0.014950000000000001				
591	0.01694				
592	0.01865				
593	0.01994				
594	0.02113				
595	0.02257				
596	0.0245				
597	0.027280000000000002				
598	0.03108				
599	0.03627				
600	0.04408				
601	0.05789				
602	0.07453				
603	0.09849999999999999				
604	0.13080999999999998				
605	0.17047				
606	0.22241				
607	0.28855000000000003				
608	0.36261000000000004				
609	0.43545				
610	0.51243				
611	0.60494				
612	0.7337600000000001				
613	0.8615600000000001				
614	0.94364				
615	0.97382				
616	0.97533				
617	0.97589				
618	0.98015				
619	0.98473				
620	0.9867900000000001				
621	0.9870300000000001				
622	0.98564				
623	0.9833700000000001				
624	0.9820099999999999				
625	0.9817199999999999				
626	0.98125				
627	0.98151				
628	0.9825				
629	0.98315				
630	0.9832299999999999				
631	0.9829600000000001				
632	0.98321				
633	0.98238				
634	0.98232				
635	0.98394				
636	0.98407				
637	0.9843500000000001				
638	0.98339				
639	0.98399				
640	0.98578				
641	0.9856				
642	0.9852299999999999				
643	0.98547				
644	0.98724				
645	0.98854				
646	0.9889100000000001				
647	0.98651				
648	0.9873999999999999				
649	0.98775				
650	0.98493				
651	0.98495				
652	0.98372				
653	0.9846699999999999				
654	0.98342				
655	0.9817199999999999				
656	0.98334				
657	0.9826				
658	0.98209				
659	0.9817199999999999				
660	0.98033				
661	0.9810500000000001				
662	0.9805200000000001				
663	0.9775400000000001				
664	0.97646				
665	0.97641				
666	0.9769				
667	0.97763				
668	0.9780500000000001				
669	0.97967				
670	0.97969				
671	0.98083				
672	0.98258				
673	0.9835699999999999				
674	0.98462				
675	0.9852				
676	0.9855200000000001				
677	0.98529				
678	0.98495				
679	0.98442				
680	0.9836				
681	0.9821599999999999				
682	0.98155				
683	0.9815600000000001				
684	0.9817400000000001				
685	0.98253				
686	0.9825400000000001				
687	0.9820699999999999				
688	0.9830500000000001				
689	0.98504				
690	0.98587				
691	0.98545				
692	0.9853000000000001				
693	0.9869100000000001				
694	0.98543				
695	0.98583				
696	0.98747				
697	0.98662				
698	0.98776				
699	0.98673				
700	0.98772				
701	0.98839				
702	0.9878				
703	0.9858100000000001				
704	0.9847899999999999				
705	0.9863599999999999				
706	0.9847899999999999				
707	0.9868600000000001				
708	0.9881399999999999				
709	0.9862000000000001				
710	0.98576				
711	0.98507				
712	0.98638				
713	0.98545				
714	0.98411				
715	0.9832599999999999				
716	0.9828				
717	0.98202				
718	0.9820399999999999				
719	0.98251				
720	0.9828600000000001				
721	0.98161				
722	0.98077				
723	0.98139				
724	0.98217				
725	0.98275				
726	0.9832299999999999				
727	0.98244				
728	0.98234				
729	0.98238				
730	0.9826				
731	0.98333				
732	0.98386				
733	0.98417				
734	0.98438				
735	0.98454				
736	0.9839				
737	0.9826600000000001				
738	0.9824299999999999				
739	0.9846299999999999				
740	0.9858100000000001				
741	0.9821599999999999				
742	0.9840300000000001				
743	0.98575				
744	0.9876900000000001				
745	0.98675				
746	0.9867400000000001				
747	0.98748				
748	0.98812				
749	0.9873000000000001				
750	0.98983				
751	0.99178				
752	0.98799				
753	0.9859699999999999				
754	0.98851				
755	0.988				
756	0.9858499999999999				
757	0.98897				
758	0.98776				
759	0.9885200000000001				
760	0.98614				
761	0.98965				
762	0.98875				
763	0.9888800000000001				
764	0.99041				
765	0.98985				
766	0.98919				
767	0.98895				
768	0.9899				
769	0.9897499999999999				
770	0.98895				
771	0.98783				
772	0.9879399999999999				
773	0.98762				
774	0.9858499999999999				
775	0.9847400000000001				
776	0.9843600000000001				
777	0.98419				
778	0.98432				
779	0.98373				
780	0.98259				
781	0.98303				
782	0.98363				
783	0.98289				
784	0.9827400000000001				
785	0.98244				
786	0.98214				
787	0.9825499999999999				
788	0.9845999999999999				
789	0.9860500000000001				
790	0.98623				
791	0.98717				
792	0.9877800000000001				
793	0.98949				
794	0.98941				
795	0.9887900000000001				
796	0.98496				
797	0.9847899999999999				
798	0.98708				
799	0.98449				
800	0.98936				
801	0.986				
802	0.98465				
803	0.9865999999999999				
804	0.9856				
805	0.98431				
806	0.9854999999999999				
807	0.986				
808	0.98355				
809	0.98339				
810	0.98657				
811	0.98676				
812	0.9861				
813	0.98699				
814	0.9875				
815	0.98786				
816	0.98667				
817	0.9872299999999999				
818	0.98676				
819	0.98664				
820	0.98706				
821	0.9869499999999999				
822	0.9870300000000001				
823	0.98705				
824	0.98733				
825	0.9878100000000001				
826	0.98761				
827	0.9869499999999999				
828	0.98698				
829	0.98733				
830	0.98664				
831	0.9872299999999999				
832	0.98741				
833	0.98746				
834	0.9872299999999999				
835	0.98721				
836	0.98655				
837	0.9858100000000001				
838	0.9856100000000001				
839	0.9851300000000001				
840	0.9851099999999999				
841	0.9869100000000001				
842	0.9860099999999999				
843	0.9851800000000001				
844	0.98512				
845	0.9855700000000001				
846	0.98527				
847	0.98315				
848	0.98322				
849	0.98344				
850	0.9840399999999999				
851	0.98419				
852	0.98566				
853	0.98473				
854	0.98476				
855	0.98213				
856	0.98193				
857	0.9840000000000001				
858	0.98494				
859	0.98193				
860	0.98114				
861	0.98087				
862	0.98111				
863	0.98064				
864	0.9806199999999999				
865	0.98068				
866	0.9784999999999999				
867	0.9785200000000001				
868	0.97811				
869	0.97783				
870	0.9780500000000001				
871	0.97868				
872	0.97879				
873	0.9790099999999999				
874	0.98				
875	0.98103				
876	0.98139				
877	0.9820399999999999				
878	0.98298				
879	0.98374				
880	0.98253				
881	0.98179				
882	0.98086				
883	0.97992				
884	0.9776600000000001				
885	0.9756699999999999				
886	0.9733799999999999				
887	0.9699599999999999				
888	0.96638				
889	0.96327				
890	0.96002				
891	0.95709				
892	0.9527500000000001				
893	0.94863				
894	0.9460599999999999				
895	0.9429900000000001				
896	0.94024				
897	0.93726				
898	0.93511				
899	0.93521				
900	0.93589				
