Wavelength	Transmittance	hex_color	Manufacturer	Name	Filter Number
380	0.28337	#838383	Chroma	Unnamed	ZT502rdc
381	0.21078				
382	0.13819				
383	0.15342				
384	0.17488				
385	0.10382999999999999				
386	0.03019				
387	0.01088				
388	0.00978				
389	0.012490000000000001				
390	0.013560000000000001				
391	0.00919				
392	0.0037199999999999998				
393	0.00117				
394	0.00109				
395	0.00123				
396	0.00191				
397	0.00179				
398	0.00134				
399	0.00124				
400	0.00067				
401	0.0005899999999999999				
402	0.00017999999999999998				
403	0.00066				
404	0.00068				
405	0.0008500000000000001				
406	0.00105				
407	0.0008				
408	7.000000000000001e-05				
409	0.00014000000000000001				
410	0.00037				
411	0.00021				
412	0.00015				
413	0.00028000000000000003				
414	0.00074				
415	0.00068				
416	0.00048				
417	0.00046				
418	3e-05				
419	8e-05				
420	0.00017				
421	0.00026				
422	0.00016				
423	0.0				
424	0.00014000000000000001				
425	0.00046				
426	0.00053				
427	0.00039				
428	0.00017999999999999998				
429	0.00024				
430	0.00015				
431	0.00012				
432	0.0004				
433	0.00017999999999999998				
434	0.00041				
435	0.00049				
436	0.00061				
437	0.00042				
438	0.00037				
439	0.00024				
440	0.00033				
441	0.00035000000000000005				
442	0.00024				
443	0.00037999999999999997				
444	0.00042				
445	0.00058				
446	0.00047				
447	0.0005899999999999999				
448	0.0005				
449	0.00063				
450	0.00074				
451	0.00091				
452	0.00104				
453	0.00153				
454	0.00199				
455	0.00201				
456	0.00169				
457	0.0011799999999999998				
458	0.001				
459	0.00065				
460	0.00061				
461	0.0008100000000000001				
462	0.00097				
463	0.0014399999999999999				
464	0.0020399999999999997				
465	0.00364				
466	0.00482				
467	0.00466				
468	0.0034000000000000002				
469	0.00209				
470	0.0016				
471	0.00146				
472	0.0013700000000000001				
473	0.0017499999999999998				
474	0.00228				
475	0.00425				
476	0.010069999999999999				
477	0.01624				
478	0.0149				
479	0.00764				
480	0.0028299999999999996				
481	0.00145				
482	0.0010199999999999999				
483	0.0007099999999999999				
484	0.00068				
485	0.0005899999999999999				
486	0.00055				
487	0.0005				
488	0.00061				
489	0.0006				
490	0.00067				
491	0.00077				
492	0.0008100000000000001				
493	0.00104				
494	0.0014399999999999999				
495	0.00197				
496	0.0027300000000000002				
497	0.0040999999999999995				
498	0.00597				
499	0.00861				
500	0.01137				
501	0.013959999999999998				
502	0.01614				
503	0.0179				
504	0.01969				
505	0.022080000000000002				
506	0.02597				
507	0.031920000000000004				
508	0.04085				
509	0.055650000000000005				
510	0.07902				
511	0.11371				
512	0.16857				
513	0.23699				
514	0.32234				
515	0.40692999999999996				
516	0.48195				
517	0.5776100000000001				
518	0.71813				
519	0.8597499999999999				
520	0.9476				
521	0.96762				
522	0.97064				
523	0.9767199999999999				
524	0.983				
525	0.98571				
526	0.98506				
527	0.98276				
528	0.98225				
529	0.98202				
530	0.9824200000000001				
531	0.98395				
532	0.9856100000000001				
533	0.98478				
534	0.98288				
535	0.98309				
536	0.98453				
537	0.9843999999999999				
538	0.98504				
539	0.98556				
540	0.9847				
541	0.98519				
542	0.9868899999999999				
543	0.98784				
544	0.98687				
545	0.98524				
546	0.98779				
547	0.9884900000000001				
548	0.98662				
549	0.9843600000000001				
550	0.9820699999999999				
551	0.97893				
552	0.97812				
553	0.9773000000000001				
554	0.97588				
555	0.9747499999999999				
556	0.97404				
557	0.9746299999999999				
558	0.97539				
559	0.97557				
560	0.97551				
561	0.97635				
562	0.9778				
563	0.97977				
564	0.98137				
565	0.98176				
566	0.9816800000000001				
567	0.9819100000000001				
568	0.9816800000000001				
569	0.9817100000000001				
570	0.9803700000000001				
571	0.98065				
572	0.9806900000000001				
573	0.9807299999999999				
574	0.98114				
575	0.9820699999999999				
576	0.9815900000000001				
577	0.9820699999999999				
578	0.98297				
579	0.9845900000000001				
580	0.98628				
581	0.98759				
582	0.98739				
583	0.9878199999999999				
584	0.98799				
585	0.98787				
586	0.9894799999999999				
587	0.99083				
588	0.99051				
589	0.9894499999999999				
590	0.98886				
591	0.98919				
592	0.98868				
593	0.98821				
594	0.98964				
595	0.98764				
596	0.98709				
597	0.9871899999999999				
598	0.9874299999999999				
599	0.9857299999999999				
600	0.98468				
601	0.98413				
602	0.98913				
603	0.98775				
604	0.9867100000000001				
605	0.98642				
606	0.98662				
607	0.98571				
608	0.98651				
609	0.98694				
610	0.9877800000000001				
611	0.98799				
612	0.9869100000000001				
613	0.9854600000000001				
614	0.98429				
615	0.98453				
616	0.9851300000000001				
617	0.9859699999999999				
618	0.98682				
619	0.9871800000000001				
620	0.9867400000000001				
621	0.9873000000000001				
622	0.98859				
623	0.9912099999999999				
624	0.99051				
625	0.9909399999999999				
626	0.9921800000000001				
627	0.99198				
628	0.9930800000000001				
629	0.99249				
630	0.99212				
631	0.9913				
632	0.9907299999999999				
633	0.9900100000000001				
634	0.99004				
635	0.98937				
636	0.9895499999999999				
637	0.9895499999999999				
638	0.98872				
639	0.9886199999999999				
640	0.99054				
641	0.99104				
642	0.99175				
643	0.99233				
644	0.99214				
645	0.99292				
646	0.9948999999999999				
647	0.9915999999999999				
648	0.99091				
649	0.99075				
650	0.9887699999999999				
651	0.98741				
652	0.98639				
653	0.98641				
654	0.9856199999999999				
655	0.9853799999999999				
656	0.98555				
657	0.9870399999999999				
658	0.9886499999999999				
659	0.98871				
660	0.98949				
661	0.9909				
662	0.99187				
663	0.99322				
664	0.9938400000000001				
665	0.99299				
666	0.99194				
667	0.99086				
668	0.9910800000000001				
669	0.9910800000000001				
670	0.99063				
671	0.99035				
672	0.98969				
673	0.98772				
674	0.9851300000000001				
675	0.98481				
676	0.9846299999999999				
677	0.9852				
678	0.98619				
679	0.9864				
680	0.9871599999999999				
681	0.98827				
682	0.9894				
683	0.98957				
684	0.98884				
685	0.98869				
686	0.98952				
687	0.98973				
688	0.9901300000000001				
689	0.99036				
690	0.99012				
691	0.9901000000000001				
692	0.98977				
693	0.9894700000000001				
694	0.98926				
695	0.9902599999999999				
696	0.99099				
697	0.99006				
698	0.98775				
699	0.98643				
700	0.98591				
701	0.98713				
702	0.98734				
703	0.98615				
704	0.9851399999999999				
705	0.9855800000000001				
706	0.9856199999999999				
707	0.98545				
708	0.9849899999999999				
709	0.98492				
710	0.9849				
711	0.98497				
712	0.98455				
713	0.98233				
714	0.98076				
715	0.98002				
716	0.9797100000000001				
717	0.97976				
718	0.97949				
719	0.97886				
720	0.9785299999999999				
721	0.9782500000000001				
722	0.97774				
723	0.9769100000000001				
724	0.97641				
725	0.9759699999999999				
726	0.97514				
727	0.97417				
728	0.9753000000000001				
729	0.9763299999999999				
730	0.97765				
731	0.9779000000000001				
732	0.97791				
733	0.9792400000000001				
734	0.98002				
735	0.9806100000000001				
736	0.98044				
737	0.9810800000000001				
738	0.9803499999999999				
739	0.9763200000000001				
740	0.97386				
741	0.97113				
742	0.96738				
743	0.9626699999999999				
744	0.95907				
745	0.9543600000000001				
746	0.9498000000000001				
747	0.9456399999999999				
748	0.9411499999999999				
749	0.93744				
750	0.9339				
751	0.93159				
752	0.9301200000000001				
753	0.9289799999999999				
754	0.9290900000000001				
755	0.9296099999999999				
756	0.92928				
757	0.9289400000000001				
758	0.92998				
759	0.9311				
760	0.9312900000000001				
761	0.93021				
762	0.9266200000000001				
763	0.92018				
764	0.91191				
765	0.90146				
766	0.88766				
767	0.87166				
768	0.85506				
769	0.8352200000000001				
770	0.8151600000000001				
771	0.79479				
772	0.7741500000000001				
773	0.7548999999999999				
774	0.7363599999999999				
775	0.71894				
776	0.7021				
777	0.6875199999999999				
778	0.67536				
779	0.66664				
780	0.66086				
781	0.6591				
782	0.66102				
783	0.66786				
784	0.67786				
785	0.69317				
786	0.71297				
787	0.73566				
788	0.75725				
789	0.7779600000000001				
790	0.79191				
791	0.79462				
792	0.78289				
793	0.7574				
794	0.7213200000000001				
795	0.68234				
796	0.64587				
797	0.61195				
798	0.58592				
799	0.56589				
800	0.5526800000000001				
801	0.54553				
802	0.54264				
803	0.54333				
804	0.54693				
805	0.5519				
806	0.55828				
807	0.56515				
808	0.57192				
809	0.57927				
810	0.58839				
811	0.60168				
812	0.62303				
813	0.6586700000000001				
814	0.7103				
815	0.76279				
816	0.77899				
817	0.72747				
818	0.62181				
819	0.51202				
820	0.42918999999999996				
821	0.37534999999999996				
822	0.33978				
823	0.31526				
824	0.29786				
825	0.28408				
826	0.27385000000000004				
827	0.26572				
828	0.25944				
829	0.25517				
830	0.25246999999999997				
831	0.25162				
832	0.25234				
833	0.25488				
834	0.25978				
835	0.26604				
836	0.27372				
837	0.28348				
838	0.29539000000000004				
839	0.30993				
840	0.32728				
841	0.34643999999999997				
842	0.36716				
843	0.38752000000000003				
844	0.4072				
845	0.42112				
846	0.42591				
847	0.41723				
848	0.39463000000000004				
849	0.35883000000000004				
850	0.31347				
851	0.26154				
852	0.21513000000000002				
853	0.17389				
854	0.13936				
855	0.10935				
856	0.08710000000000001				
857	0.06978				
858	0.055229999999999994				
859	0.043449999999999996				
860	0.0352				
861	0.028380000000000002				
862	0.02336				
863	0.0194				
864	0.01605				
865	0.013560000000000001				
866	0.01133				
867	0.00961				
868	0.00821				
869	0.00701				
870	0.00607				
871	0.005180000000000001				
872	0.00449				
873	0.00391				
874	0.0034000000000000002				
875	0.0028799999999999997				
876	0.0025900000000000003				
877	0.0023799999999999997				
878	0.00208				
879	0.0018599999999999999				
880	0.0016300000000000002				
881	0.00151				
882	0.0012900000000000001				
883	0.00123				
884	0.0011200000000000001				
885	0.0010199999999999999				
886	0.00094				
887	0.0008				
888	0.0008				
889	0.00066				
890	0.0005600000000000001				
891	0.00053				
892	0.00054				
893	0.0004				
894	0.00043999999999999996				
895	0.00037999999999999997				
896	0.00034				
897	0.00035999999999999997				
898	0.0003				
899	0.00029				
900	0.00035000000000000005				
