Wavelength	Transmittance	hex_color	Manufacturer	Name	Filter Number
380	0.08069000000000001	#838383	Chroma	Unnamed	ZT405/514/594rpc
381	0.12367				
382	0.15695				
383	0.28069				
384	0.33077				
385	0.19363				
386	0.17431999999999997				
387	0.32275				
388	0.46586				
389	0.34643999999999997				
390	0.18789				
391	0.22643000000000002				
392	0.29379				
393	0.11532999999999999				
394	0.11314				
395	0.18359000000000003				
396	0.06089000000000001				
397	0.02104				
398	0.0175				
399	0.008110000000000001				
400	0.00228				
401	0.00078				
402	0.00067				
403	0.0034699999999999996				
404	0.00444				
405	0.0016				
406	0.00048				
407	8.999999999999999e-05				
408	0.0				
409	6e-05				
410	0.00053				
411	0.0027				
412	0.012969999999999999				
413	0.08579				
414	0.37649				
415	0.44821				
416	0.46817				
417	0.55732				
418	0.84273				
419	0.91298				
420	0.91411				
421	0.91833				
422	0.9279900000000001				
423	0.92917				
424	0.92447				
425	0.9160200000000001				
426	0.91535				
427	0.92152				
428	0.93199				
429	0.93931				
430	0.94072				
431	0.94023				
432	0.93959				
433	0.9443699999999999				
434	0.94876				
435	0.95048				
436	0.95223				
437	0.95795				
438	0.965				
439	0.96516				
440	0.9554900000000001				
441	0.94191				
442	0.92746				
443	0.92292				
444	0.92875				
445	0.94336				
446	0.95818				
447	0.96393				
448	0.9543600000000001				
449	0.94163				
450	0.9369700000000001				
451	0.94301				
452	0.95443				
453	0.95985				
454	0.95798				
455	0.9539799999999999				
456	0.95223				
457	0.95819				
458	0.96527				
459	0.9687699999999999				
460	0.9682299999999999				
461	0.9618300000000001				
462	0.9552700000000001				
463	0.95262				
464	0.95521				
465	0.96158				
466	0.96418				
467	0.96237				
468	0.9545399999999999				
469	0.95003				
470	0.94818				
471	0.94988				
472	0.9548399999999999				
473	0.9595199999999999				
474	0.95949				
475	0.9586100000000001				
476	0.9562999999999999				
477	0.9551000000000001				
478	0.95404				
479	0.95806				
480	0.96269				
481	0.96563				
482	0.96411				
483	0.9559300000000001				
484	0.9482200000000001				
485	0.94536				
486	0.95001				
487	0.95966				
488	0.9687300000000001				
489	0.9702500000000001				
490	0.9652299999999999				
491	0.9610500000000001				
492	0.9606600000000001				
493	0.96569				
494	0.96712				
495	0.96813				
496	0.96541				
497	0.96319				
498	0.95651				
499	0.94254				
500	0.92988				
501	0.9310200000000001				
502	0.94664				
503	0.8749899999999999				
504	0.67258				
505	0.39689				
506	0.21061				
507	0.11634				
508	0.06953999999999999				
509	0.04562				
510	0.033769999999999994				
511	0.02618				
512	0.022090000000000002				
513	0.02015				
514	0.01986				
515	0.02096				
516	0.023889999999999998				
517	0.02854				
518	0.03721				
519	0.05241				
520	0.07945				
521	0.12686999999999998				
522	0.20804999999999998				
523	0.32314				
524	0.43432000000000004				
525	0.5265299999999999				
526	0.60717				
527	0.7191200000000001				
528	0.83773				
529	0.9019799999999999				
530	0.93277				
531	0.94575				
532	0.95486				
533	0.96197				
534	0.9660299999999999				
535	0.97048				
536	0.97178				
537	0.97143				
538	0.9687				
539	0.96675				
540	0.96414				
541	0.9641200000000001				
542	0.96654				
543	0.9704900000000001				
544	0.97331				
545	0.97502				
546	0.97469				
547	0.9740099999999999				
548	0.9727899999999999				
549	0.9718899999999999				
550	0.9713200000000001				
551	0.97131				
552	0.97065				
553	0.96894				
554	0.9695				
555	0.9687399999999999				
556	0.97018				
557	0.9698300000000001				
558	0.9716800000000001				
559	0.97001				
560	0.9687699999999999				
561	0.96682				
562	0.9637699999999999				
563	0.95949				
564	0.95504				
565	0.95009				
566	0.9470000000000001				
567	0.94599				
568	0.95054				
569	0.95774				
570	0.9631399999999999				
571	0.96556				
572	0.95991				
573	0.9510599999999999				
574	0.9409399999999999				
575	0.9392499999999999				
576	0.9492				
577	0.95465				
578	0.90744				
579	0.74424				
580	0.53356				
581	0.34832				
582	0.22408999999999998				
583	0.14661				
584	0.09941000000000001				
585	0.07059				
586	0.053079999999999995				
587	0.04157				
588	0.03448				
589	0.03013				
590	0.027559999999999998				
591	0.02637				
592	0.02619				
593	0.02711				
594	0.02911				
595	0.03236				
596	0.03758				
597	0.04606				
598	0.057839999999999996				
599	0.07575				
600	0.10247999999999999				
601	0.14276				
602	0.20573				
603	0.28511				
604	0.37384999999999996				
605	0.45488999999999996				
606	0.51223				
607	0.56564				
608	0.63337				
609	0.73687				
610	0.84989				
611	0.9142600000000001				
612	0.92735				
613	0.92716				
614	0.9348099999999999				
615	0.94831				
616	0.9637				
617	0.97312				
618	0.972				
619	0.96364				
620	0.9533400000000001				
621	0.94491				
622	0.94081				
623	0.9418300000000001				
624	0.9475100000000001				
625	0.95509				
626	0.9632200000000001				
627	0.9694799999999999				
628	0.9732599999999999				
629	0.9738				
630	0.97285				
631	0.97063				
632	0.9709699999999999				
633	0.9707899999999999				
634	0.97197				
635	0.97489				
636	0.9766800000000001				
637	0.97679				
638	0.97675				
639	0.97461				
640	0.97225				
641	0.96951				
642	0.96795				
643	0.9688				
644	0.97085				
645	0.97433				
646	0.97846				
647	0.97997				
648	0.97898				
649	0.97682				
650	0.97211				
651	0.96449				
652	0.95685				
653	0.9516100000000001				
654	0.94774				
655	0.9461499999999999				
656	0.94914				
657	0.95406				
658	0.9607399999999999				
659	0.9665699999999999				
660	0.97355				
661	0.97746				
662	0.9789100000000001				
663	0.97886				
664	0.9765699999999999				
665	0.9723999999999999				
666	0.9666800000000001				
667	0.96333				
668	0.9611				
669	0.9593600000000001				
670	0.95878				
671	0.9594799999999999				
672	0.96027				
673	0.96211				
674	0.96399				
675	0.96454				
676	0.96451				
677	0.96494				
678	0.96506				
679	0.96577				
680	0.9656699999999999				
681	0.96769				
682	0.9694499999999999				
683	0.9711799999999999				
684	0.97391				
685	0.9771299999999999				
686	0.97925				
687	0.98				
688	0.9809				
689	0.98084				
690	0.9793600000000001				
691	0.97714				
692	0.97396				
693	0.97124				
694	0.9684				
695	0.96848				
696	0.96825				
697	0.96796				
698	0.96893				
699	0.9705800000000001				
700	0.97038				
701	0.96973				
702	0.96776				
703	0.96599				
704	0.96336				
705	0.9615				
706	0.95926				
707	0.9583499999999999				
708	0.95872				
709	0.95955				
710	0.96219				
711	0.96517				
712	0.96883				
713	0.9720799999999999				
714	0.9754200000000001				
715	0.97655				
716	0.97797				
717	0.97697				
718	0.97378				
719	0.97283				
720	0.9690000000000001				
721	0.96421				
722	0.96068				
723	0.95815				
724	0.9554900000000001				
725	0.95616				
726	0.95672				
727	0.95884				
728	0.95979				
729	0.96241				
730	0.96466				
731	0.9656199999999999				
732	0.96608				
733	0.96434				
734	0.9625				
735	0.95902				
736	0.9543				
737	0.94926				
738	0.9450799999999999				
739	0.93988				
740	0.9348399999999999				
741	0.92963				
742	0.9245699999999999				
743	0.9216				
744	0.91889				
745	0.917				
746	0.91429				
747	0.9116599999999999				
748	0.91097				
749	0.90991				
750	0.9081199999999999				
