Wavelength	Transmittance	hex_color	Manufacturer	Name	Filter Number
380	0.0028000000000000004	#838383	Chroma	Unnamed	ZT656dcrb
381	0.11352999999999999				
382	0.25622				
383	0.39350999999999997				
384	0.5240699999999999				
385	0.7073699999999999				
386	0.83343				
387	0.88101				
388	0.90661				
389	0.91974				
390	0.9301999999999999				
391	0.93683				
392	0.9433				
393	0.95672				
394	0.9551999999999999				
395	0.95929				
396	0.96351				
397	0.96675				
398	0.9698399999999999				
399	0.97087				
400	0.9708				
401	0.97402				
402	0.9769599999999999				
403	0.97726				
404	0.97914				
405	0.98299				
406	0.9826				
407	0.9829000000000001				
408	0.98586				
409	0.98887				
410	0.9878				
411	0.9887999999999999				
412	0.9925				
413	0.99298				
414	0.9919				
415	0.99279				
416	0.99592				
417	0.99348				
418	0.9893899999999999				
419	0.98816				
420	0.98981				
421	0.9883799999999999				
422	0.98517				
423	0.98536				
424	0.99151				
425	0.9891800000000001				
426	0.98637				
427	0.98869				
428	0.98654				
429	0.98776				
430	0.98666				
431	0.9866800000000001				
432	0.98619				
433	0.98237				
434	0.9801300000000001				
435	0.98158				
436	0.98226				
437	0.98103				
438	0.97937				
439	0.9804999999999999				
440	0.98295				
441	0.98129				
442	0.9780200000000001				
443	0.9737300000000001				
444	0.97921				
445	0.9825400000000001				
446	0.98457				
447	0.9774200000000001				
448	0.97698				
449	0.97978				
450	0.9840099999999999				
451	0.98384				
452	0.98161				
453	0.9804600000000001				
454	0.98386				
455	0.98678				
456	0.9841599999999999				
457	0.9781399999999999				
458	0.97698				
459	0.98124				
460	0.98411				
461	0.9803499999999999				
462	0.9754200000000001				
463	0.97371				
464	0.97673				
465	0.97858				
466	0.97799				
467	0.9729800000000001				
468	0.97099				
469	0.97272				
470	0.97737				
471	0.9773900000000001				
472	0.9738				
473	0.96962				
474	0.96714				
475	0.96955				
476	0.9710899999999999				
477	0.97135				
478	0.9686100000000001				
479	0.96565				
480	0.96601				
481	0.96898				
482	0.9706999999999999				
483	0.96655				
484	0.96463				
485	0.9608599999999999				
486	0.9579000000000001				
487	0.96119				
488	0.96369				
489	0.96538				
490	0.96162				
491	0.95954				
492	0.95939				
493	0.96057				
494	0.9614400000000001				
495	0.96147				
496	0.9611799999999999				
497	0.9588899999999999				
498	0.9595199999999999				
499	0.96125				
500	0.96426				
501	0.96613				
502	0.96976				
503	0.97282				
504	0.9732999999999999				
505	0.97497				
506	0.9769100000000001				
507	0.9712000000000001				
508	0.9687				
509	0.9670300000000001				
510	0.9618800000000001				
511	0.9615699999999999				
512	0.9615				
513	0.96309				
514	0.96492				
515	0.96548				
516	0.96382				
517	0.96223				
518	0.95959				
519	0.96076				
520	0.96541				
521	0.96748				
522	0.9687399999999999				
523	0.96867				
524	0.9677				
525	0.96446				
526	0.96663				
527	0.96475				
528	0.9656600000000001				
529	0.96843				
530	0.97083				
531	0.97015				
532	0.96931				
533	0.9669599999999999				
534	0.96745				
535	0.96707				
536	0.96881				
537	0.96982				
538	0.9742799999999999				
539	0.97244				
540	0.97116				
541	0.96764				
542	0.9654699999999999				
543	0.9673999999999999				
544	0.9682299999999999				
545	0.96756				
546	0.9688800000000001				
547	0.97039				
548	0.97015				
549	0.9688599999999999				
550	0.9667100000000001				
551	0.96398				
552	0.96268				
553	0.9641200000000001				
554	0.9688				
555	0.9716899999999999				
556	0.97292				
557	0.97167				
558	0.96899				
559	0.96518				
560	0.96209				
561	0.9632200000000001				
562	0.96828				
563	0.9730200000000001				
564	0.97378				
565	0.97397				
566	0.97065				
567	0.96642				
568	0.965				
569	0.96509				
570	0.96515				
571	0.9676600000000001				
572	0.9703				
573	0.97319				
574	0.97241				
575	0.96917				
576	0.96458				
577	0.9634199999999999				
578	0.96085				
579	0.96111				
580	0.9647199999999999				
581	0.96961				
582	0.9709699999999999				
583	0.97175				
584	0.9702200000000001				
585	0.96619				
586	0.9632200000000001				
587	0.95699				
588	0.95782				
589	0.95973				
590	0.96345				
591	0.96745				
592	0.97163				
593	0.9731399999999999				
594	0.9701099999999999				
595	0.9645999999999999				
596	0.9586100000000001				
597	0.95506				
598	0.95416				
599	0.95743				
600	0.9619				
601	0.97187				
602	0.97673				
603	0.97354				
604	0.9686400000000001				
605	0.96185				
606	0.9543600000000001				
607	0.95057				
608	0.95134				
609	0.95512				
610	0.9625499999999999				
611	0.96898				
612	0.97161				
613	0.9715699999999999				
614	0.9676				
615	0.9602299999999999				
616	0.95321				
617	0.94977				
618	0.9491200000000001				
619	0.9544400000000001				
620	0.9620099999999999				
621	0.96908				
622	0.97211				
623	0.96965				
624	0.96116				
625	0.95107				
626	0.9441299999999999				
627	0.94108				
628	0.94478				
629	0.95339				
630	0.96339				
631	0.97155				
632	0.97179				
633	0.9638500000000001				
634	0.94965				
635	0.93794				
636	0.9357800000000001				
637	0.94474				
638	0.95899				
639	0.94852				
640	0.8786799999999999				
641	0.7449800000000001				
642	0.57972				
643	0.43006999999999995				
644	0.31159				
645	0.22127				
646	0.15752				
647	0.11188000000000001				
648	0.08339				
649	0.06329				
650	0.05056				
651	0.03996				
652	0.03333				
653	0.02849				
654	0.02532				
655	0.0231				
656	0.021640000000000003				
657	0.02073				
658	0.02043				
659	0.020659999999999998				
660	0.02145				
661	0.02283				
662	0.02488				
663	0.027690000000000003				
664	0.03193				
665	0.03735				
666	0.04484				
667	0.05651				
668	0.07123				
669	0.0933				
670	0.12308				
671	0.16408999999999999				
672	0.21917999999999999				
673	0.28922000000000003				
674	0.36861				
675	0.44226999999999994				
676	0.50796				
677	0.5655100000000001				
678	0.62622				
679	0.69658				
680	0.7786799999999999				
681	0.85423				
682	0.9096				
683	0.9337000000000001				
684	0.94351				
685	0.9473999999999999				
686	0.95243				
687	0.9598099999999999				
688	0.96614				
689	0.97083				
690	0.9716400000000001				
691	0.96958				
692	0.96509				
693	0.9599				
694	0.95517				
695	0.95085				
696	0.95097				
697	0.95348				
698	0.95765				
699	0.96364				
700	0.97033				
701	0.97615				
702	0.9802599999999999				
703	0.9804900000000001				
704	0.9795699999999999				
705	0.9772700000000001				
706	0.9743600000000001				
707	0.97095				
708	0.9702200000000001				
709	0.97076				
710	0.9703499999999999				
711	0.9712900000000001				
712	0.97383				
713	0.97599				
714	0.97747				
715	0.9787				
716	0.97937				
717	0.98033				
718	0.97883				
719	0.978				
720	0.97757				
721	0.9762000000000001				
722	0.9756900000000001				
723	0.9769				
724	0.97712				
725	0.9771599999999999				
726	0.97753				
727	0.9779800000000001				
728	0.97886				
729	0.9786				
730	0.97765				
731	0.97665				
732	0.9757899999999999				
733	0.9747100000000001				
734	0.9741599999999999				
735	0.9736				
736	0.97273				
737	0.97417				
738	0.97434				
739	0.97578				
740	0.97726				
741	0.9790300000000001				
742	0.97809				
743	0.97906				
744	0.97974				
745	0.9793999999999999				
746	0.97868				
747	0.97872				
748	0.9792700000000001				
749	0.9787				
750	0.97812				
751	0.97718				
752	0.97749				
753	0.97887				
754	0.97939				
755	0.97997				
756	0.9786199999999999				
757	0.97831				
758	0.9782500000000001				
759	0.97879				
760	0.9799500000000001				
761	0.98129				
762	0.9818000000000001				
763	0.98252				
764	0.9828100000000001				
765	0.98212				
766	0.98149				
767	0.98076				
768	0.98116				
769	0.9810899999999999				
770	0.9803400000000001				
771	0.98006				
772	0.98059				
773	0.9814				
774	0.9817199999999999				
775	0.9813299999999999				
776	0.9809				
777	0.98054				
778	0.98111				
779	0.9817199999999999				
780	0.98087				
781	0.97968				
782	0.9782899999999999				
783	0.9802599999999999				
784	0.97914				
785	0.97879				
786	0.97883				
787	0.9783799999999999				
788	0.9798300000000001				
789	0.98139				
790	0.9817400000000001				
791	0.98111				
792	0.98166				
793	0.9802				
794	0.97946				
795	0.9802500000000001				
796	0.9810800000000001				
797	0.98113				
798	0.97931				
799	0.97966				
800	0.9783799999999999				
801	0.97699				
802	0.97623				
803	0.97541				
804	0.97434				
805	0.97435				
806	0.9741200000000001				
807	0.9733700000000001				
808	0.9738800000000001				
809	0.9733700000000001				
810	0.9745199999999999				
811	0.9757399999999999				
812	0.97682				
813	0.97795				
814	0.97752				
815	0.9775400000000001				
816	0.97878				
817	0.97944				
818	0.97834				
819	0.97622				
820	0.9769199999999999				
821	0.9760599999999999				
822	0.97528				
823	0.9742700000000001				
824	0.9731000000000001				
825	0.9720300000000001				
826	0.97303				
827	0.97249				
828	0.97295				
829	0.97316				
830	0.97351				
831	0.9725400000000001				
832	0.97237				
833	0.97368				
834	0.97454				
835	0.97482				
836	0.9750700000000001				
837	0.97531				
838	0.9753000000000001				
839	0.97519				
840	0.97506				
841	0.97391				
842	0.97297				
843	0.97178				
844	0.97148				
845	0.97135				
846	0.9709699999999999				
847	0.9705800000000001				
848	0.97112				
849	0.97092				
850	0.96979				
851	0.9694499999999999				
852	0.9704600000000001				
853	0.96997				
854	0.96825				
855	0.9683499999999999				
856	0.96829				
857	0.96679				
858	0.96661				
859	0.96685				
860	0.96894				
861	0.97024				
862	0.9689700000000001				
863	0.97001				
864	0.97065				
865	0.9687600000000001				
866	0.96908				
867	0.9670799999999999				
868	0.96557				
869	0.96568				
870	0.96557				
871	0.9633799999999999				
872	0.96285				
873	0.96306				
874	0.96261				
875	0.96265				
876	0.96205				
877	0.96143				
878	0.9606999999999999				
879	0.96092				
880	0.9622799999999999				
881	0.96214				
882	0.96244				
883	0.9642700000000001				
884	0.96355				
885	0.96297				
886	0.96269				
887	0.96328				
888	0.96301				
889	0.9625900000000001				
890	0.96235				
891	0.96218				
892	0.96151				
893	0.9601099999999999				
894	0.9603499999999999				
895	0.9602299999999999				
896	0.95882				
897	0.95806				
898	0.95828				
899	0.95904				
900	0.95863				
901	0.9584999999999999				
902	0.95958				
903	0.96052				
904	0.96114				
905	0.9615699999999999				
906	0.9620099999999999				
907	0.96164				
908	0.9620399999999999				
909	0.9618300000000001				
910	0.9623999999999999				
911	0.9633700000000001				
912	0.96406				
913	0.96396				
914	0.96328				
915	0.96262				
916	0.96219				
917	0.96226				
918	0.9619199999999999				
919	0.9607800000000001				
920	0.95892				
921	0.95777				
922	0.95634				
923	0.9559000000000001				
924	0.95494				
925	0.95466				
926	0.9553100000000001				
927	0.9556100000000001				
928	0.95604				
929	0.95659				
930	0.95626				
931	0.95574				
932	0.95571				
933	0.95707				
934	0.95985				
935	0.96				
936	0.95864				
937	0.95951				
938	0.95926				
939	0.95868				
940	0.9588599999999999				
941	0.9576				
942	0.95609				
943	0.95565				
944	0.9556				
945	0.95478				
946	0.95353				
947	0.95245				
948	0.95197				
949	0.9511799999999999				
950	0.9506399999999999				
951	0.94889				
952	0.9475				
953	0.94632				
954	0.9465				
955	0.94744				
956	0.94829				
957	0.9484999999999999				
958	0.94988				
959	0.95184				
960	0.95281				
961	0.95451				
962	0.95499				
963	0.9564400000000001				
964	0.9572400000000001				
965	0.95776				
966	0.9575199999999999				
967	0.9590000000000001				
968	0.9605800000000001				
969	0.96163				
970	0.96114				
971	0.96075				
972	0.9601900000000001				
973	0.95871				
974	0.9581000000000001				
975	0.9577100000000001				
976	0.9567				
977	0.9547100000000001				
978	0.95261				
979	0.9518300000000001				
980	0.94999				
981	0.94934				
982	0.9492400000000001				
983	0.9494799999999999				
984	0.94796				
985	0.94916				
986	0.9508199999999999				
987	0.95121				
988	0.9510299999999999				
989	0.9540099999999999				
990	0.95486				
991	0.9552200000000001				
992	0.9564900000000001				
993	0.95759				
994	0.9584999999999999				
995	0.95902				
996	0.9604699999999999				
997	0.96024				
998	0.9606399999999999				
999	0.95887				
1000	0.95839				
1001	0.9584999999999999				
1002	0.9565600000000001				
1003	0.95417				
1004	0.95289				
1005	0.95028				
1006	0.9478700000000001				
1007	0.94491				
1008	0.9425199999999999				
1009	0.94097				
1010	0.9389400000000001				
1011	0.93759				
1012	0.9357500000000001				
1013	0.93556				
1014	0.9348399999999999				
1015	0.93491				
1016	0.9354399999999999				
1017	0.93526				
1018	0.93636				
1019	0.9388200000000001				
1020	0.94009				
1021	0.9423900000000001				
1022	0.94536				
1023	0.94754				
1024	0.9483799999999999				
1025	0.95015				
1026	0.9521				
1027	0.9543200000000001				
1028	0.95573				
1029	0.9570799999999999				
1030	0.95796				
1031	0.9588				
1032	0.95935				
1033	0.96002				
1034	0.9579300000000001				
1035	0.95539				
1036	0.9544499999999999				
1037	0.95404				
1038	0.95172				
1039	0.9482299999999999				
1040	0.9449				
1041	0.9429000000000001				
1042	0.94057				
1043	0.93888				
1044	0.9373				
1045	0.93525				
1046	0.9342199999999999				
1047	0.93318				
1048	0.93093				
1049	0.9310200000000001				
1050	0.9311799999999999				
1051	0.92972				
1052	0.9313800000000001				
1053	0.93258				
1054	0.9333899999999999				
1055	0.9333400000000001				
1056	0.93721				
1057	0.94049				
1058	0.94241				
1059	0.9449599999999999				
1060	0.9476				
1061	0.9498399999999999				
1062	0.95152				
1063	0.9531000000000001				
1064	0.9544499999999999				
1065	0.9561799999999999				
1066	0.95624				
1067	0.95542				
1068	0.95487				
1069	0.95426				
1070	0.95325				
1071	0.9514900000000001				
1072	0.9495399999999999				
1073	0.94692				
1074	0.9457				
1075	0.9432200000000001				
1076	0.9394899999999999				
1077	0.93711				
1078	0.9334399999999999				
1079	0.9304300000000001				
1080	0.9276000000000001				
1081	0.92589				
1082	0.92136				
1083	0.92025				
1084	0.91804				
1085	0.91594				
1086	0.91488				
1087	0.91375				
1088	0.9148499999999999				
1089	0.91592				
1090	0.91806				
1091	0.92003				
1092	0.92097				
1093	0.92345				
1094	0.9257599999999999				
1095	0.92809				
1096	0.9304300000000001				
1097	0.93233				
1098	0.93577				
1099	0.93753				
1100	0.93798				
