Wavelength	Transmittance	hex_color	Manufacturer	Name	Filter Number
380	0.78889	#838383	Chroma	Unnamed	ZT550dcrb
381	0.79984				
382	0.8214				
383	0.83295				
384	0.8476600000000001				
385	0.85574				
386	0.8619100000000001				
387	0.8579000000000001				
388	0.8683799999999999				
389	0.86493				
390	0.86591				
391	0.87142				
392	0.84685				
393	0.8583				
394	0.85177				
395	0.8237300000000001				
396	0.86233				
397	0.83467				
398	0.82238				
399	0.85324				
400	0.79059				
401	0.80479				
402	0.82254				
403	0.71757				
404	0.7574599999999999				
405	0.80137				
406	0.6875199999999999				
407	0.74009				
408	0.76999				
409	0.62822				
410	0.6819799999999999				
411	0.71014				
412	0.54031				
413	0.57227				
414	0.65218				
415	0.47566				
416	0.47875999999999996				
417	0.53444				
418	0.35398				
419	0.31028				
420	0.34273000000000003				
421	0.20775				
422	0.11874000000000001				
423	0.12813				
424	0.06405				
425	0.00582				
426	0.0017100000000000001				
427	0.0016				
428	0.0017399999999999998				
429	0.00167				
430	0.00181				
431	0.0016200000000000001				
432	0.00169				
433	0.00234				
434	0.00598				
435	0.040979999999999996				
436	0.17734000000000003				
437	0.24955				
438	0.31256				
439	0.50396				
440	0.57764				
441	0.6690200000000001				
442	0.79447				
443	0.8220099999999999				
444	0.8537399999999999				
445	0.9174500000000001				
446	0.94107				
447	0.94072				
448	0.94635				
449	0.9584699999999999				
450	0.9626				
451	0.9637699999999999				
452	0.96229				
453	0.9638800000000001				
454	0.9656600000000001				
455	0.9657800000000001				
456	0.965				
457	0.96461				
458	0.96827				
459	0.9711799999999999				
460	0.97107				
461	0.9686499999999999				
462	0.96679				
463	0.9694400000000001				
464	0.9702299999999999				
465	0.9692400000000001				
466	0.96672				
467	0.96691				
468	0.9704900000000001				
469	0.9711700000000001				
470	0.9706699999999999				
471	0.97027				
472	0.9719599999999999				
473	0.97368				
474	0.97402				
475	0.9702299999999999				
476	0.9688				
477	0.9665900000000001				
478	0.9704				
479	0.97429				
480	0.9744799999999999				
481	0.9725499999999999				
482	0.97134				
483	0.97212				
484	0.9736899999999999				
485	0.9743999999999999				
486	0.97344				
487	0.97197				
488	0.97288				
489	0.97453				
490	0.9757899999999999				
491	0.97423				
492	0.97206				
493	0.97339				
494	0.97563				
495	0.97777				
496	0.97817				
497	0.97732				
498	0.9770300000000001				
499	0.97738				
500	0.9786199999999999				
501	0.97748				
502	0.97626				
503	0.97598				
504	0.97712				
505	0.97896				
506	0.98048				
507	0.9783				
508	0.97584				
509	0.9764700000000001				
510	0.9785299999999999				
511	0.9793600000000001				
512	0.97624				
513	0.97282				
514	0.9720399999999999				
515	0.97441				
516	0.97854				
517	0.9786100000000001				
518	0.97404				
519	0.9695999999999999				
520	0.97041				
521	0.9754999999999999				
522	0.97978				
523	0.9759300000000001				
524	0.96576				
525	0.95664				
526	0.9567700000000001				
527	0.96502				
528	0.97333				
529	0.97217				
530	0.96506				
531	0.961				
532	0.96571				
533	0.97409				
534	0.97297				
535	0.9621999999999999				
536	0.9360299999999999				
537	0.8592799999999999				
538	0.71069				
539	0.54551				
540	0.3936				
541	0.2286				
542	0.13026				
543	0.07097				
544	0.042409999999999996				
545	0.02916				
546	0.022330000000000003				
547	0.01838				
548	0.01667				
549	0.01627				
550	0.0172				
551	0.01956				
552	0.02396				
553	0.03218				
554	0.045700000000000005				
555	0.07156				
556	0.12211				
557	0.21844000000000002				
558	0.364				
559	0.55787				
560	0.79045				
561	0.93338				
562	0.9636100000000001				
563	0.9582200000000001				
564	0.96661				
565	0.9772				
566	0.97441				
567	0.9652299999999999				
568	0.96017				
569	0.9641200000000001				
570	0.97214				
571	0.97693				
572	0.97489				
573	0.96694				
574	0.96028				
575	0.9583799999999999				
576	0.9641				
577	0.9714700000000001				
578	0.9761299999999999				
579	0.9748				
580	0.9702200000000001				
581	0.9677899999999999				
582	0.96654				
583	0.9718000000000001				
584	0.977				
585	0.98055				
586	0.9776699999999999				
587	0.97197				
588	0.9650700000000001				
589	0.96261				
590	0.9644799999999999				
591	0.97128				
592	0.97745				
593	0.9815600000000001				
594	0.98032				
595	0.9742799999999999				
596	0.96973				
597	0.96842				
598	0.9718600000000001				
599	0.97626				
600	0.9807899999999999				
601	0.98374				
602	0.98033				
603	0.9768000000000001				
604	0.97226				
605	0.97218				
606	0.9718600000000001				
607	0.97557				
608	0.97973				
609	0.98461				
610	0.98372				
611	0.97809				
612	0.9729800000000001				
613	0.9684699999999999				
614	0.9677				
615	0.97084				
616	0.9767199999999999				
617	0.98234				
618	0.98592				
619	0.9858				
620	0.98468				
621	0.98088				
622	0.97759				
623	0.97547				
624	0.97627				
625	0.97859				
626	0.9813299999999999				
627	0.98385				
628	0.98521				
629	0.98469				
630	0.9821599999999999				
631	0.97939				
632	0.9775499999999999				
633	0.97712				
634	0.97949				
635	0.9821899999999999				
636	0.9854999999999999				
637	0.9869199999999999				
638	0.98603				
639	0.9830200000000001				
640	0.9789100000000001				
641	0.97653				
642	0.97418				
643	0.97556				
644	0.97799				
645	0.98238				
646	0.98536				
647	0.98873				
648	0.9883299999999999				
649	0.9854900000000001				
650	0.9814				
651	0.97678				
652	0.9752500000000001				
653	0.97375				
654	0.97611				
655	0.9791200000000001				
656	0.98261				
657	0.98714				
658	0.98751				
659	0.9866800000000001				
660	0.9837				
661	0.9788800000000001				
662	0.97449				
663	0.97153				
664	0.9706699999999999				
665	0.97343				
666	0.9770399999999999				
667	0.98071				
668	0.98405				
669	0.98477				
670	0.9817				
671	0.97697				
672	0.9700700000000001				
673	0.96454				
674	0.96016				
675	0.96013				
676	0.9627899999999999				
677	0.96788				
678	0.97236				
679	0.97596				
680	0.9777800000000001				
681	0.97435				
682	0.96863				
683	0.96076				
684	0.95325				
685	0.9477500000000001				
686	0.94598				
687	0.95018				
688	0.95498				
689	0.95949				
690	0.96099				
691	0.95788				
692	0.95218				
693	0.9450799999999999				
694	0.93793				
695	0.93377				
696	0.93136				
697	0.93235				
698	0.93552				
699	0.9364100000000001				
700	0.93301				
701	0.9237099999999999				
702	0.91444				
703	0.90616				
704	0.9009199999999999				
705	0.9017000000000001				
706	0.9063899999999999				
707	0.91265				
708	0.91968				
709	0.92219				
710	0.91384				
711	0.89063				
712	0.86083				
713	0.8326				
714	0.8158799999999999				
715	0.81623				
716	0.83356				
717	0.86064				
718	0.8921899999999999				
719	0.9152800000000001				
720	0.91488				
721	0.87785				
722	0.81125				
723	0.73611				
724	0.68444				
725	0.66596				
726	0.6841700000000001				
727	0.74028				
728	0.8248099999999999				
729	0.90986				
730	0.9306				
731	0.85931				
732	0.7353700000000001				
733	0.61829				
734	0.55071				
735	0.54216				
736	0.60121				
737	0.6961400000000001				
738	0.73406				
739	0.68137				
740	0.61983				
741	0.6203799999999999				
742	0.64728				
743	0.5714				
744	0.40345				
745	0.28837				
746	0.25389				
747	0.25123999999999996				
748	0.27867000000000003				
749	0.33493				
750	0.41324				
