Wavelength	Transmittance	hex_color	Manufacturer	Name	Filter Number
380	0.17918	#838383	Chroma	Unnamed	ZT594rdc
381	0.16268000000000002				
382	0.14119				
383	0.1759				
384	0.24791				
385	0.26537				
386	0.28721				
387	0.38279				
388	0.43424999999999997				
389	0.41296999999999995				
390	0.40869999999999995				
391	0.41417000000000004				
392	0.35531999999999997				
393	0.25341				
394	0.16484000000000001				
395	0.15352				
396	0.16097				
397	0.09579				
398	0.034159999999999996				
399	0.0441				
400	0.0359				
401	0.00814				
402	0.0005				
403	0.0				
404	0.0				
405	0.00031				
406	0.0				
407	0.0002				
408	0.0				
409	6e-05				
410	0.0				
411	0.0				
412	0.0				
413	0.0				
414	0.0				
415	0.0				
416	0.0007000000000000001				
417	0.00367				
418	0.022719999999999997				
419	0.10059				
420	0.17254000000000003				
421	0.13921				
422	0.051840000000000004				
423	0.01686				
424	0.01452				
425	0.04274				
426	0.10779999999999999				
427	0.12913				
428	0.07239				
429	0.033889999999999997				
430	0.05956				
431	0.13374				
432	0.18966000000000002				
433	0.14059				
434	0.07917				
435	0.07861				
436	0.12805999999999998				
437	0.19792				
438	0.21170999999999998				
439	0.17773				
440	0.21152				
441	0.3064				
442	0.28707				
443	0.18797999999999998				
444	0.13974				
445	0.17157				
446	0.17296				
447	0.10271000000000001				
448	0.03803				
449	0.02098				
450	0.02147				
451	0.03011				
452	0.033159999999999995				
453	0.02451				
454	0.01184				
455	0.00624				
456	0.005350000000000001				
457	0.006959999999999999				
458	0.008960000000000001				
459	0.008539999999999999				
460	0.00525				
461	0.0028499999999999997				
462	0.0018599999999999999				
463	0.0017599999999999998				
464	0.00221				
465	0.0028599999999999997				
466	0.00307				
467	0.00265				
468	0.00168				
469	0.0010199999999999999				
470	0.00075				
471	0.00092				
472	0.0011				
473	0.00135				
474	0.00136				
475	0.00123				
476	0.0010199999999999999				
477	0.00077				
478	0.00042				
479	0.00057				
480	0.00073				
481	0.0008				
482	0.00092				
483	0.00096				
484	0.00077				
485	0.00054				
486	0.00058				
487	0.00052				
488	0.00055				
489	0.00055				
490	0.0005899999999999999				
491	0.00083				
492	0.00077				
493	0.0008				
494	0.00061				
495	0.0005600000000000001				
496	0.00054				
497	0.0005899999999999999				
498	0.00073				
499	0.00078				
500	0.0008699999999999999				
501	0.00094				
502	0.0008100000000000001				
503	0.00068				
504	0.00066				
505	0.00068				
506	0.00084				
507	0.0011				
508	0.0012900000000000001				
509	0.0011899999999999999				
510	0.00107				
511	0.0009299999999999999				
512	0.00078				
513	0.00074				
514	0.0006900000000000001				
515	0.00095				
516	0.00121				
517	0.00158				
518	0.00203				
519	0.00233				
520	0.00209				
521	0.0017299999999999998				
522	0.00145				
523	0.00126				
524	0.00121				
525	0.00125				
526	0.00158				
527	0.00215				
528	0.00311				
529	0.00437				
530	0.00529				
531	0.0054800000000000005				
532	0.00496				
533	0.00411				
534	0.0034100000000000003				
535	0.00313				
536	0.0032400000000000003				
537	0.00386				
538	0.005390000000000001				
539	0.0085				
540	0.01424				
541	0.02008				
542	0.021070000000000002				
543	0.015880000000000002				
544	0.00964				
545	0.00579				
546	0.00418				
547	0.0034599999999999995				
548	0.00332				
549	0.0037199999999999998				
550	0.00482				
551	0.0074399999999999996				
552	0.01315				
553	0.02298				
554	0.03239				
555	0.02952				
556	0.01773				
557	0.00936				
558	0.005809999999999999				
559	0.00424				
560	0.00367				
561	0.00378				
562	0.00452				
563	0.0059299999999999995				
564	0.01006				
565	0.01989				
566	0.03345				
567	0.03698				
568	0.02566				
569	0.01233				
570	0.0057399999999999994				
571	0.00332				
572	0.00228				
573	0.00178				
574	0.00151				
575	0.0013800000000000002				
576	0.00132				
577	0.00122				
578	0.00124				
579	0.00135				
580	0.0015199999999999999				
581	0.0016300000000000002				
582	0.00181				
583	0.00214				
584	0.00233				
585	0.00261				
586	0.0031				
587	0.0034699999999999996				
588	0.0039900000000000005				
589	0.0046				
590	0.005600000000000001				
591	0.00645				
592	0.00753				
593	0.00958				
594	0.01205				
595	0.01608				
596	0.02185				
597	0.031139999999999998				
598	0.046189999999999995				
599	0.07125				
600	0.11231999999999999				
601	0.18037				
602	0.27975				
603	0.37411				
604	0.46222				
605	0.54415				
606	0.65565				
607	0.79912				
608	0.90724				
609	0.9448099999999999				
610	0.95209				
611	0.95866				
612	0.9658				
613	0.9704699999999999				
614	0.9727899999999999				
615	0.9742000000000001				
616	0.97565				
617	0.9761700000000001				
618	0.97607				
619	0.97548				
620	0.9748600000000001				
621	0.9732				
622	0.97501				
623	0.97601				
624	0.9768399999999999				
625	0.97697				
626	0.97572				
627	0.9742799999999999				
628	0.9722799999999999				
629	0.9715699999999999				
630	0.97198				
631	0.97274				
632	0.97378				
633	0.97527				
634	0.9773099999999999				
635	0.9779300000000001				
636	0.97787				
637	0.97759				
638	0.97434				
639	0.97249				
640	0.9711799999999999				
641	0.97178				
642	0.97342				
643	0.97568				
644	0.97723				
645	0.97911				
646	0.98056				
647	0.98123				
648	0.98008				
649	0.97828				
650	0.976				
651	0.97462				
652	0.97347				
653	0.97371				
654	0.9751000000000001				
655	0.97497				
656	0.97667				
657	0.9790099999999999				
658	0.98057				
659	0.98217				
660	0.98214				
661	0.98268				
662	0.9824200000000001				
663	0.98169				
664	0.98137				
665	0.98017				
666	0.98021				
667	0.97934				
668	0.9793000000000001				
669	0.97981				
670	0.98003				
671	0.9802299999999999				
672	0.97968				
673	0.97937				
674	0.9792700000000001				
675	0.97869				
676	0.97884				
677	0.9797899999999999				
678	0.9809				
679	0.98226				
680	0.98334				
681	0.98421				
682	0.9859399999999999				
683	0.98627				
684	0.98649				
685	0.98607				
686	0.9852599999999999				
687	0.98488				
688	0.9841				
689	0.98356				
690	0.98262				
691	0.9835299999999999				
692	0.9831300000000001				
693	0.9848699999999999				
694	0.9854900000000001				
695	0.9880500000000001				
696	0.98759				
697	0.98835				
698	0.98906				
699	0.98832				
700	0.9880500000000001				
701	0.98726				
702	0.9868000000000001				
703	0.98509				
704	0.9841200000000001				
705	0.9833799999999999				
706	0.9818300000000001				
707	0.9815900000000001				
708	0.9810500000000001				
709	0.98182				
710	0.9827800000000001				
711	0.9847100000000001				
712	0.98685				
713	0.9885200000000001				
714	0.98897				
715	0.9892				
716	0.98866				
717	0.98803				
718	0.9863299999999999				
719	0.98378				
720	0.98336				
721	0.98348				
722	0.98214				
723	0.9809699999999999				
724	0.9836400000000001				
725	0.98493				
726	0.98287				
727	0.98332				
728	0.9840099999999999				
729	0.98299				
730	0.9831399999999999				
731	0.9832500000000001				
732	0.98285				
733	0.98363				
734	0.9839199999999999				
735	0.98185				
736	0.98246				
737	0.9831				
738	0.98303				
739	0.98335				
740	0.9857299999999999				
741	0.98583				
742	0.9865999999999999				
743	0.98627				
744	0.98749				
745	0.98836				
746	0.9895900000000001				
747	0.99043				
748	0.98708				
749	0.98598				
750	0.98379				
751	0.98393				
752	0.98443				
753	0.98382				
754	0.9813500000000001				
755	0.98059				
756	0.98229				
757	0.98289				
758	0.98169				
759	0.98343				
760	0.98516				
761	0.9863500000000001				
762	0.98543				
763	0.98584				
764	0.98631				
765	0.98642				
766	0.98677				
767	0.98657				
768	0.9859300000000001				
769	0.98602				
770	0.98746				
771	0.98654				
772	0.98629				
773	0.98531				
774	0.9853000000000001				
775	0.98517				
776	0.9860599999999999				
777	0.98604				
778	0.98571				
779	0.98665				
780	0.98578				
781	0.98753				
782	0.9868399999999999				
783	0.9854				
784	0.98779				
785	0.98804				
786	0.98617				
787	0.98578				
788	0.98655				
789	0.98724				
790	0.98497				
791	0.9851300000000001				
792	0.9855700000000001				
793	0.98732				
794	0.98724				
795	0.98712				
796	0.9880500000000001				
797	0.98827				
798	0.98623				
799	0.98664				
800	0.9865999999999999				
801	0.98623				
802	0.98563				
803	0.98576				
804	0.98468				
805	0.98454				
806	0.9838				
807	0.98374				
808	0.9840000000000001				
809	0.9849				
810	0.9852599999999999				
811	0.98587				
812	0.9860800000000001				
813	0.98613				
814	0.9865200000000001				
815	0.9864700000000001				
816	0.9872799999999999				
817	0.9871500000000001				
818	0.98747				
819	0.9869199999999999				
820	0.98764				
821	0.9876				
822	0.98748				
823	0.98735				
824	0.98725				
825	0.98739				
826	0.9862099999999999				
827	0.9859699999999999				
828	0.9859699999999999				
829	0.98627				
830	0.9851099999999999				
831	0.9839600000000001				
832	0.98277				
833	0.9820300000000001				
834	0.98162				
835	0.98236				
836	0.9831300000000001				
837	0.9826699999999999				
838	0.9815699999999999				
839	0.9812000000000001				
840	0.98057				
841	0.9812099999999999				
842	0.98177				
843	0.9826600000000001				
844	0.9828				
845	0.9848300000000001				
846	0.9853400000000001				
847	0.9849				
848	0.98411				
849	0.98502				
850	0.9849800000000001				
851	0.9854900000000001				
852	0.9862099999999999				
853	0.98639				
854	0.9856900000000001				
855	0.98521				
856	0.98407				
857	0.98382				
858	0.9830800000000001				
859	0.9834099999999999				
860	0.98193				
861	0.9802299999999999				
862	0.97941				
863	0.9782				
864	0.9779399999999999				
865	0.9773499999999999				
866	0.9768899999999999				
867	0.97526				
868	0.97513				
869	0.97563				
870	0.9754600000000001				
871	0.9755400000000001				
872	0.97539				
873	0.97518				
874	0.97548				
875	0.97493				
876	0.97386				
877	0.97438				
878	0.9736499999999999				
879	0.9752500000000001				
880	0.9769100000000001				
881	0.97638				
882	0.97771				
883	0.97761				
884	0.9776699999999999				
885	0.97698				
886	0.97714				
887	0.9766400000000001				
888	0.97526				
889	0.97612				
890	0.9768399999999999				
891	0.97745				
892	0.9767				
893	0.97573				
894	0.97539				
895	0.97548				
896	0.9759				
897	0.97678				
898	0.9770300000000001				
899	0.9778				
900	0.97708				
901	0.97646				
902	0.97698				
903	0.97596				
904	0.9716899999999999				
905	0.9718800000000001				
906	0.97033				
907	0.96787				
908	0.9657399999999999				
909	0.96288				
910	0.9614499999999999				
911	0.95747				
912	0.9547100000000001				
913	0.9523199999999999				
914	0.9504300000000001				
915	0.94848				
916	0.9481499999999999				
917	0.94833				
918	0.94895				
919	0.95005				
920	0.95164				
921	0.95328				
922	0.9559099999999999				
923	0.95899				
924	0.96055				
925	0.9610500000000001				
926	0.95977				
927	0.95674				
928	0.95127				
929	0.94202				
930	0.92947				
931	0.91281				
932	0.89318				
933	0.86896				
934	0.84206				
935	0.81355				
936	0.78685				
937	0.7574299999999999				
938	0.73141				
939	0.70833				
940	0.68565				
941	0.6657299999999999				
942	0.64941				
943	0.63627				
944	0.6267				
945	0.62018				
946	0.61523				
947	0.61533				
948	0.61815				
949	0.62293				
950	0.63048				
951	0.6404900000000001				
952	0.65181				
953	0.66688				
954	0.68592				
955	0.7088500000000001				
956	0.7346299999999999				
957	0.75944				
958	0.7750100000000001				
959	0.76768				
960	0.7290300000000001				
961	0.6659900000000001				
962	0.5887899999999999				
963	0.5123				
964	0.44358				
965	0.38746				
966	0.34460999999999997				
967	0.30857				
968	0.28241				
969	0.26202000000000003				
970	0.24585				
971	0.23396				
972	0.22568000000000002				
973	0.22066				
974	0.21889				
975	0.22286999999999998				
976	0.23367000000000002				
977	0.25934				
978	0.30670000000000003				
979	0.37449				
980	0.42789				
981	0.43728				
982	0.40097				
983	0.35678				
984	0.33771				
985	0.34848				
986	0.37284				
987	0.40270000000000006				
988	0.42877000000000004				
989	0.44243000000000005				
990	0.43933				
991	0.41926				
992	0.38077				
993	0.33505				
994	0.28456				
995	0.23913				
996	0.19858				
997	0.16624				
998	0.13895				
999	0.11862				
1000	0.1018				
