Wavelength	Transmittance	hex_color	Manufacturer	Name	Filter Number
380	1e-05	#838383	Chroma	Unnamed	89016bs
381	0.04609				
382	0.11707000000000001				
383	0.10156000000000001				
384	0.04822				
385	0.06398				
386	0.19088999999999998				
387	0.20382				
388	0.17036				
389	0.41888				
390	0.65357				
391	0.58254				
392	0.41581				
393	0.33293				
394	0.18341000000000002				
395	0.04221				
396	0.00421				
397	0.0012				
398	0.0005600000000000001				
399	0.0007000000000000001				
400	0.0008				
401	0.00037999999999999997				
402	5e-05				
403	1e-05				
404	1e-05				
405	1e-05				
406	1e-05				
407	1e-05				
408	1e-05				
409	0.00028000000000000003				
410	0.0016				
411	0.00736				
412	0.01361				
413	0.0152				
414	0.01532				
415	0.02193				
416	0.03883				
417	0.03705				
418	0.0176				
419	0.00853				
420	0.009519999999999999				
421	0.01171				
422	0.00869				
423	0.00394				
424	0.0022				
425	0.00255				
426	0.00496				
427	0.00781				
428	0.00643				
429	0.0030499999999999998				
430	0.00183				
431	0.00211				
432	0.00515				
433	0.00866				
434	0.00612				
435	0.0017599999999999998				
436	0.00057				
437	0.00017				
438	8e-05				
439	5e-05				
440	1e-05				
441	1e-05				
442	1e-05				
443	3e-05				
444	5e-05				
445	0.00013				
446	0.00033				
447	0.0006900000000000001				
448	0.00084				
449	0.00062				
450	0.00046				
451	0.00052				
452	0.00094				
453	0.00156				
454	0.00165				
455	0.0011799999999999998				
456	0.00078				
457	0.00064				
458	0.00083				
459	0.00156				
460	0.00271				
461	0.0030399999999999997				
462	0.00212				
463	0.0013800000000000002				
464	0.0012900000000000001				
465	0.00185				
466	0.00413				
467	0.00931				
468	0.010509999999999999				
469	0.00527				
470	0.00211				
471	0.00158				
472	0.00219				
473	0.0064600000000000005				
474	0.01643				
475	0.01583				
476	0.004739999999999999				
477	0.0008699999999999999				
478	0.00037				
479	0.00024				
480	0.00017				
481	0.00013				
482	0.00012				
483	0.00015				
484	0.0002				
485	0.00026				
486	0.00035999999999999997				
487	0.0005899999999999999				
488	0.00104				
489	0.0017599999999999998				
490	0.00294				
491	0.00442				
492	0.00594				
493	0.00746				
494	0.00954				
495	0.012549999999999999				
496	0.01763				
497	0.029140000000000003				
498	0.0519				
499	0.10179				
500	0.18893000000000001				
501	0.30915				
502	0.42253				
503	0.51719				
504	0.6574899999999999				
505	0.82479				
506	0.9314100000000001				
507	0.9634999999999999				
508	0.97013				
509	0.97759				
510	0.9825400000000001				
511	0.9812099999999999				
512	0.9754999999999999				
513	0.97016				
514	0.96891				
515	0.96937				
516	0.97101				
517	0.9719				
518	0.97032				
519	0.96857				
520	0.96691				
521	0.96638				
522	0.96772				
523	0.9698300000000001				
524	0.97205				
525	0.9738800000000001				
526	0.97512				
527	0.9752200000000001				
528	0.975				
529	0.97509				
530	0.97405				
531	0.97166				
532	0.96808				
533	0.96313				
534	0.94357				
535	0.8846299999999999				
536	0.7703				
537	0.61915				
538	0.45397				
539	0.29617				
540	0.17550999999999997				
541	0.10013				
542	0.05903				
543	0.036840000000000005				
544	0.024700000000000003				
545	0.0175				
546	0.01314				
547	0.01034				
548	0.0085				
549	0.0073				
550	0.00666				
551	0.00631				
552	0.00619				
553	0.00628				
554	0.00657				
555	0.00711				
556	0.00788				
557	0.00901				
558	0.010620000000000001				
559	0.01284				
560	0.01584				
561	0.02021				
562	0.0265				
563	0.035699999999999996				
564	0.04929				
565	0.07003				
566	0.10122999999999999				
567	0.14626				
568	0.2107				
569	0.28997				
570	0.37963				
571	0.45692				
572	0.52954				
573	0.6060099999999999				
574	0.71677				
575	0.83069				
576	0.9089400000000001				
577	0.9251				
578	0.9245399999999999				
579	0.93391				
580	0.94877				
581	0.9601900000000001				
582	0.96292				
583	0.955				
584	0.94538				
585	0.93784				
586	0.93649				
587	0.93805				
588	0.94476				
589	0.95392				
590	0.9604900000000001				
591	0.9632				
592	0.96321				
593	0.96099				
594	0.9594799999999999				
595	0.9588				
596	0.9614199999999999				
597	0.9655				
598	0.96845				
599	0.96991				
600	0.97072				
601	0.96863				
602	0.9665699999999999				
603	0.96504				
604	0.96529				
605	0.96738				
606	0.96949				
607	0.96967				
608	0.9634				
609	0.9476				
610	0.9246599999999999				
611	0.90189				
612	0.87932				
613	0.8548699999999999				
614	0.8191200000000001				
615	0.7558400000000001				
616	0.66023				
617	0.5404				
618	0.41485				
619	0.30457				
620	0.21745				
621	0.1537				
622	0.10830000000000001				
623	0.07735				
624	0.05627				
625	0.042030000000000005				
626	0.03206				
627	0.02521				
628	0.020259999999999997				
629	0.01668				
630	0.01399				
631	0.01204				
632	0.010589999999999999				
633	0.0095				
634	0.0087				
635	0.00815				
636	0.0077800000000000005				
637	0.00758				
638	0.0075				
639	0.0076100000000000004				
640	0.007890000000000001				
641	0.00831				
642	0.00894				
643	0.0098				
644	0.01099				
645	0.01256				
646	0.0147				
647	0.0175				
648	0.02136				
649	0.027690000000000003				
650	0.03613				
651	0.047830000000000004				
652	0.06445000000000001				
653	0.08949				
654	0.13122				
655	0.18485				
656	0.25089				
657	0.3249				
658	0.39359				
659	0.45116				
660	0.49046999999999996				
661	0.52394				
662	0.55838				
663	0.6120300000000001				
664	0.6878				
665	0.7800400000000001				
666	0.8691500000000001				
667	0.92072				
668	0.94418				
669	0.95319				
670	0.95435				
671	0.95439				
672	0.9555899999999999				
673	0.95714				
674	0.9592400000000001				
675	0.9607399999999999				
676	0.96237				
677	0.9633700000000001				
678	0.96414				
679	0.96411				
680	0.96431				
681	0.96548				
682	0.96655				
683	0.9669				
684	0.9671299999999999				
685	0.96685				
686	0.96635				
687	0.9665300000000001				
688	0.96658				
689	0.96694				
690	0.96681				
691	0.96776				
692	0.9691				
693	0.96799				
694	0.9679099999999999				
695	0.96768				
696	0.96722				
697	0.96614				
698	0.96614				
699	0.9677				
700	0.96896				
701	0.96875				
702	0.96882				
703	0.9698300000000001				
704	0.97009				
705	0.9707399999999999				
706	0.97096				
707	0.97048				
708	0.96891				
709	0.9668300000000001				
710	0.9633499999999999				
711	0.96104				
712	0.95738				
713	0.9526600000000001				
714	0.94772				
715	0.94356				
716	0.9412900000000001				
717	0.9370499999999999				
718	0.93375				
719	0.93112				
720	0.93194				
721	0.93443				
722	0.93826				
723	0.94369				
724	0.95092				
725	0.95762				
726	0.96158				
727	0.96125				
728	0.95126				
729	0.92551				
730	0.8832099999999999				
731	0.83139				
732	0.75928				
733	0.6854				
734	0.59939				
735	0.504				
736	0.43268999999999996				
737	0.36363999999999996				
738	0.30864				
739	0.25773				
740	0.21072				
741	0.18028				
742	0.15423				
743	0.13388999999999998				
744	0.11417				
745	0.10102				
746	0.09049				
747	0.08088				
748	0.07441				
749	0.06926				
750	0.06413				
